# Total cross section of inelastic gamma-neutron interactions from Sophia
# photon energy E [GeV]    cross section [mu b]
0.150053	0.00945467
0.150919	0.127083
0.15179	0.243883
0.152667	1.80461
0.153548	4.27025
0.154435	6.96595
0.155326	9.80393
0.156223	12.7395
0.157125	15.7448
0.158032	18.8004
0.158944	21.892
0.159862	25.0086
0.160785	28.1415
0.161713	31.2837
0.162646	34.4297
0.163585	37.5746
0.16453	40.7147
0.16548	43.8466
0.166435	46.9677
0.167396	50.0758
0.168362	53.1689
0.169334	56.2457
0.170312	59.3048
0.171295	62.3453
0.172284	65.3665
0.173278	68.3678
0.174279	71.3489
0.175285	74.3096
0.176297	77.2499
0.177315	80.1697
0.178338	83.0695
0.179368	85.9494
0.180403	88.8099
0.181445	91.6517
0.182492	94.4753
0.183546	97.2815
0.184605	100.071
0.185671	102.845
0.186743	105.604
0.187821	108.35
0.188905	111.084
0.189996	113.806
0.191093	116.518
0.192196	119.222
0.193306	121.919
0.194422	124.611
0.195544	127.3
0.196673	129.986
0.197808	132.672
0.19895	135.36
0.200099	138.052
0.201254	140.749
0.202416	143.455
0.203584	146.171
0.20476	148.9
0.205942	151.644
0.207131	154.406
0.208326	157.189
0.209529	159.994
0.210739	162.826
0.211955	165.687
0.213179	168.581
0.21441	171.51
0.215648	174.477
0.216892	177.487
0.218145	180.542
0.219404	183.647
0.220671	186.805
0.221945	190.02
0.223226	193.295
0.224515	196.636
0.225811	200.045
0.227114	203.526
0.228425	207.085
0.229744	210.725
0.23107	214.45
0.232404	218.264
0.233746	222.172
0.235096	226.178
0.236453	230.285
0.237818	234.498
0.239191	238.821
0.240572	243.257
0.241961	247.809
0.243357	252.481
0.244762	257.277
0.246175	262.198
0.247596	267.249
0.249026	272.43
0.250464	277.743
0.251909	283.192
0.253364	288.776
0.254826	294.496
0.256298	300.353
0.257777	306.346
0.259265	312.475
0.260762	318.739
0.262268	325.136
0.263782	331.664
0.265304	338.32
0.266836	345.101
0.268376	352.003
0.269926	359.022
0.271484	366.152
0.273051	373.388
0.274628	380.724
0.276213	388.154
0.277808	395.669
0.279412	403.261
0.281025	410.923
0.282647	418.645
0.284279	426.416
0.28592	434.226
0.287571	442.063
0.289231	449.915
0.290901	457.768
0.29258	465.607
0.294269	473.418
0.295968	481.182
0.297676	488.881
0.299395	496.497
0.301123	504.007
0.302862	511.388
0.30461	518.617
0.306369	525.666
0.308137	532.509
0.309916	539.115
0.311706	545.453
0.313505	551.49
0.315315	557.194
0.317135	562.528
0.318966	567.459
0.320807	571.949
0.32266	574.179
0.324522	572.634
0.326396	570.518
0.32828	567.82
0.330175	564.532
0.332081	560.649
0.333998	556.172
0.335927	551.106
0.337866	545.461
0.339817	539.253
0.341778	532.501
0.343751	525.232
0.345736	517.475
0.347732	509.264
0.349739	500.639
0.351758	491.64
0.353789	482.311
0.355832	472.7
0.357886	462.854
0.359952	452.82
0.36203	442.647
0.36412	432.382
0.366222	422.071
0.368336	411.758
0.370463	401.482
0.372601	391.283
0.374752	381.195
0.376916	371.25
0.379092	361.474
0.38128	351.891
0.383482	342.522
0.385695	333.382
0.387922	324.485
0.390162	315.839
0.392414	307.45
0.394679	299.323
0.396958	291.458
0.39925	283.854
0.401554	277.485
0.403873	271.807
0.406204	266.337
0.408549	261.067
0.410908	255.992
0.41328	251.105
0.415666	246.398
0.418066	241.864
0.420479	237.497
0.422907	233.29
0.425348	229.237
0.427804	225.332
0.430273	221.569
0.432757	217.944
0.435256	214.451
0.437768	211.088
0.440296	207.85
0.442838	204.734
0.445394	201.737
0.447965	198.855
0.450552	196.086
0.453153	193.427
0.455769	190.876
0.4584	188.43
0.461046	186.087
0.463708	183.843
0.466385	181.697
0.469077	179.646
0.471785	177.688
0.474509	175.819
0.477248	174.037
0.480004	172.341
0.482775	170.726
0.485562	169.192
0.488365	167.735
0.491184	166.353
0.49402	165.045
0.496872	163.808
0.49974	162.639
0.502625	162.825
0.505527	163.21
0.508446	163.664
0.511381	164.185
0.514333	164.773
0.517302	165.426
0.520289	166.144
0.523292	166.924
0.526313	167.768
0.529352	168.674
0.532408	169.383
0.535482	170.075
0.538573	170.819
0.541682	171.615
0.544809	172.461
0.547954	173.358
0.551118	174.306
0.554299	175.304
0.557499	176.353
0.560718	177.453
0.563955	178.604
0.567211	179.807
0.570485	181.063
0.573779	182.373
0.577091	183.737
0.580423	185.157
0.583774	186.634
0.587144	188.17
0.590533	189.766
0.593943	191.424
0.597371	193.145
0.60082	194.544
0.604289	194.757
0.607777	195.035
0.611286	195.381
0.614815	195.799
0.618364	196.291
0.621934	196.861
0.625525	197.512
0.629136	198.249
0.632768	199.075
0.636421	199.994
0.640095	201.01
0.64379	202.128
0.647507	203.352
0.651245	204.686
0.655005	206.133
0.658786	207.698
0.662589	209.382
0.666415	211.189
0.670262	213.118
0.674131	215.17
0.678023	217.342
0.681937	219.631
0.685874	222.029
0.689834	224.525
0.693816	227.107
0.697822	229.755
0.70185	232.447
0.705902	235.154
0.709977	237.841
0.714076	240.468
0.718198	242.99
0.722345	245.354
0.726515	247.507
0.730709	249.389
0.734927	250.943
0.73917	252.112
0.743438	252.843
0.747729	253.091
0.752046	252.824
0.756388	252.018
0.760754	250.667
0.765146	248.781
0.769564	246.382
0.774006	243.51
0.778475	240.216
0.782969	236.559
0.787489	232.606
0.792035	228.426
0.796608	224.088
0.801207	219.658
0.805832	215.194
0.810484	210.751
0.815163	206.374
0.819869	202.099
0.824602	197.957
0.829363	193.97
0.834151	190.153
0.838966	186.517
0.84381	183.067
0.848681	179.805
0.85358	177.163
0.858508	174.864
0.863464	172.741
0.868449	170.787
0.873463	168.994
0.878505	167.354
0.883577	165.858
0.888678	164.498
0.893808	163.264
0.898969	162.149
0.904158	161.143
0.909378	160.239
0.914628	159.429
0.919908	158.705
0.925219	158.06
0.93056	157.486
0.935932	156.977
0.941336	156.525
0.94677	156.125
0.952236	155.769
0.957733	155.451
0.963262	155.166
0.968823	154.906
0.974416	154.666
0.980042	154.441
0.985699	154.224
0.99139	154.011
0.997113	153.796
1.00287	153.575
1.00866	153.343
1.01448	153.098
1.02034	152.836
1.02623	152.554
1.03215	152.251
1.03811	151.927
1.04411	151.579
1.05013	151.21
1.0562	150.82
1.06229	150.41
1.06843	149.981
1.07459	149.536
1.0808	149.077
1.08704	148.606
1.09331	148.126
1.09962	147.639
1.10597	147.147
1.11236	146.653
1.11878	146.159
1.12524	145.667
1.13173	145.18
1.13827	144.698
1.14484	144.224
1.15145	143.76
1.1581	143.307
1.16478	142.866
1.17151	142.439
1.17827	142.028
1.18507	141.632
1.19191	141.253
1.19879	140.893
1.20571	140.551
1.21268	140.228
1.21968	139.925
1.22672	139.642
1.2338	139.379
1.24092	139.137
1.24809	138.916
1.25529	138.715
1.26254	138.535
1.26983	138.376
1.27716	138.236
1.28453	138.116
1.29195	138.016
1.2994	137.934
1.30691	137.87
1.31445	137.823
1.32204	137.793
1.32967	137.778
1.33735	137.778
1.34507	137.791
1.35283	137.817
1.36064	137.853
1.3685	137.899
1.3764	137.952
1.38435	138.012
1.39234	138.077
1.40038	138.145
1.40846	138.214
1.41659	138.283
1.42477	138.349
1.43299	138.41
1.44127	138.464
1.44959	138.51
1.45796	138.545
1.46637	138.568
1.47484	138.576
1.48335	138.568
1.49192	138.541
1.50053	138.495
1.50919	138.428
1.5179	138.339
1.52667	138.227
1.53548	138.091
1.54435	137.93
1.55326	137.746
1.56223	137.537
1.57125	137.305
1.58032	137.05
1.58944	136.773
1.59862	136.475
1.60785	136.158
1.61713	135.823
1.62646	135.473
1.63585	135.108
1.6453	134.732
1.6548	134.346
1.66435	133.952
1.67396	133.552
1.68362	133.148
1.69334	132.741
1.70312	132.335
1.71295	131.93
1.72284	131.527
1.73278	131.129
1.74279	130.737
1.75285	130.351
1.76297	129.972
1.77315	129.602
1.78338	129.241
1.79368	128.89
1.80403	128.548
1.81445	128.217
1.82492	127.897
1.83546	127.588
1.84605	127.289
1.85671	127.002
1.86743	126.725
1.87821	126.459
1.88905	126.204
1.89996	125.959
1.91093	125.725
1.92196	125.5
1.93306	125.285
1.94422	125.08
1.95544	124.883
1.96673	124.695
1.97808	124.516
1.9895	124.345
2.00099	124.182
2.01254	124.026
2.02416	123.877
2.03584	123.736
2.0476	123.6
2.05942	123.471
2.07131	123.348
2.08326	123.231
2.09529	123.119
2.10739	123.012
2.11955	122.91
2.13179	122.813
2.1441	122.72
2.15648	122.631
2.16892	122.546
2.18145	122.464
2.19404	122.386
2.20671	122.312
2.21945	122.24
2.23226	122.171
2.24515	122.106
2.25811	122.042
2.27114	121.981
2.28425	121.923
2.29744	121.866
2.3107	121.811
2.32404	121.759
2.33746	121.707
2.35096	121.658
2.36453	121.61
2.37818	121.563
2.39191	121.518
2.40572	121.474
2.41961	121.43
2.43357	121.388
2.44762	121.347
2.46175	121.306
2.47596	121.266
2.49026	121.227
2.50464	121.189
2.51909	121.151
2.53364	121.113
2.54826	121.076
2.56298	121.039
2.57777	121.003
2.59265	120.967
2.60762	120.931
2.62268	120.895
2.63782	120.859
2.65304	120.823
2.66836	120.788
2.68376	120.752
2.69926	120.717
2.71484	120.681
2.73051	120.645
2.74628	120.609
2.76213	120.573
2.77808	120.537
2.79412	120.501
2.81025	120.464
2.82647	120.427
2.84279	120.39
2.8592	120.353
2.87571	120.315
2.89231	120.277
2.90901	120.239
2.9258	120.201
2.94269	120.162
2.95968	120.123
2.97676	120.083
2.99395	120.044
3.01123	120.003
3.02862	119.963
3.0461	119.922
3.06369	119.881
3.08137	119.839
3.09916	119.797
3.11706	119.755
3.13505	119.712
3.15315	119.669
3.17135	119.626
3.18966	119.582
3.20807	119.537
3.2266	119.493
3.24522	119.448
3.26396	119.402
3.2828	119.357
3.30175	119.311
3.32081	119.264
3.33998	119.217
3.35927	119.17
3.37866	119.123
3.39817	119.075
3.41778	119.027
3.43751	118.978
3.45736	118.929
3.47732	118.88
3.49739	118.831
3.51758	118.781
3.53789	118.731
3.55832	118.681
3.57886	118.63
3.59952	118.579
3.6203	118.528
3.6412	118.476
3.66222	118.425
3.68336	118.373
3.70463	118.321
3.72601	118.268
3.74752	118.216
3.76916	118.163
3.79092	118.11
3.8128	118.057
3.83482	118.003
3.85695	117.95
3.87922	117.896
3.90162	117.842
3.92414	117.788
3.94679	117.734
3.96958	117.679
3.9925	117.625
4.01554	117.57
4.03873	117.516
4.06204	117.461
4.08549	117.406
4.10908	117.351
4.1328	117.296
4.15666	117.241
4.18066	117.186
4.20479	117.131
4.22907	117.075
4.25348	117.02
4.27804	116.965
4.30273	116.909
4.32757	116.854
4.35256	116.799
4.37768	116.743
4.40296	116.688
4.42838	116.633
4.45394	116.577
4.47965	116.522
4.50552	116.467
4.53153	116.412
4.55769	116.357
4.584	116.302
4.61046	116.247
4.63708	116.192
4.66385	116.137
4.69077	116.082
4.71785	116.028
4.74509	115.973
4.77248	115.919
4.80004	115.865
4.82775	115.811
4.85562	115.756
4.88365	115.703
4.91184	115.649
4.9402	115.595
4.96872	115.542
4.9974	115.488
5.02625	115.435
5.05527	115.382
5.08446	115.329
5.11381	115.277
5.14333	115.224
5.17302	115.172
5.20289	115.12
5.23292	115.068
5.26313	115.016
5.29352	114.964
5.32408	114.913
5.35482	114.862
5.38573	114.811
5.41682	114.76
5.44809	114.71
5.47954	114.659
5.51118	114.609
5.54299	114.559
5.57499	114.51
5.60718	114.46
5.63955	114.411
5.67211	114.362
5.70485	114.313
5.73779	114.265
5.77091	114.217
5.80423	114.169
5.83774	114.121
5.87144	114.073
5.90533	114.026
5.93943	113.979
5.97371	113.932
6.0082	113.886
6.04289	113.839
6.07777	113.793
6.11286	113.748
6.14815	113.702
6.18364	113.657
6.21934	113.612
6.25525	113.567
6.29136	113.522
6.32768	113.478
6.36421	113.434
6.40095	113.391
6.4379	113.347
6.47507	113.304
6.51245	113.261
6.55005	113.218
6.58786	113.176
6.62589	113.134
6.66415	113.092
6.70262	113.05
6.74131	113.009
6.78023	112.968
6.81937	112.927
6.85874	112.886
6.89834	112.846
6.93816	112.806
6.97822	112.766
7.0185	112.727
7.05902	112.687
7.09977	112.648
7.14076	112.61
7.18198	112.571
7.22345	112.533
7.26515	112.495
7.30709	112.457
7.34927	112.42
7.3917	112.383
7.43438	112.346
7.47729	112.309
7.52046	112.273
7.56388	112.237
7.60754	112.201
7.65146	112.165
7.69564	112.13
7.74006	112.095
7.78475	112.06
7.82969	112.025
7.87489	111.991
7.92035	111.956
7.96608	111.923
8.01207	111.889
8.05832	111.855
8.10484	111.822
8.15163	111.789
8.19869	111.757
8.24602	111.724
8.29363	111.692
8.34151	111.66
8.38966	111.628
8.4381	111.597
8.48681	111.566
8.5358	111.535
8.58508	111.504
8.63464	111.473
8.68449	111.443
8.73463	111.413
8.78505	111.383
8.83577	111.354
8.88678	111.324
8.93808	111.295
8.98969	111.266
9.04158	111.237
9.09378	111.209
9.14628	111.181
9.19908	111.153
9.25219	111.125
9.3056	111.097
9.35932	111.07
9.41336	111.043
9.4677	111.016
9.52236	110.989
9.57733	110.963
9.63262	110.936
9.68823	110.91
9.74416	110.884
9.80042	110.859
9.85699	110.833
9.9139	110.808
9.97113	110.783
10.0287	110.139
10.0866	110.122
10.1448	110.104
10.2034	110.087
10.2623	110.07
10.3215	110.053
10.3811	110.036
10.4411	110.019
10.5013	110.002
10.562	109.986
10.6229	109.969
10.6843	109.953
10.7459	109.937
10.808	109.921
10.8704	109.905
10.9331	109.889
10.9962	109.873
11.0597	109.858
11.1236	109.843
11.1878	109.827
11.2524	109.812
11.3173	109.797
11.3827	109.782
11.4484	109.767
11.5145	109.753
11.581	109.738
11.6478	109.724
11.7151	109.71
11.7827	109.695
11.8507	109.681
11.9191	109.667
11.9879	109.654
12.0571	109.64
12.1268	109.626
12.1968	109.613
12.2672	109.6
12.338	109.587
12.4092	109.574
12.4809	109.561
12.5529	109.548
12.6254	109.535
12.6983	109.523
12.7716	109.51
12.8453	109.498
12.9195	109.486
12.994	109.474
13.0691	109.462
13.1445	109.45
13.2204	109.438
13.2967	109.427
13.3735	109.415
13.4507	109.404
13.5283	109.393
13.6064	109.382
13.685	109.371
13.764	109.36
13.8435	109.349
13.9234	109.339
14.0038	109.328
14.0846	109.318
14.1659	109.308
14.2477	109.297
14.3299	109.287
14.4127	109.278
14.4959	109.268
14.5796	109.258
14.6637	109.249
14.7484	109.239
14.8335	109.23
14.9192	109.221
15.0053	109.212
15.0919	109.203
15.179	109.194
15.2667	109.186
15.3548	109.177
15.4435	109.169
15.5326	109.16
15.6223	109.152
15.7125	109.144
15.8032	109.136
15.8944	109.129
15.9862	109.121
16.0785	109.113
16.1713	109.106
16.2646	109.099
16.3585	109.091
16.453	109.084
16.548	109.077
16.6435	109.07
16.7396	109.064
16.8362	109.057
16.9334	109.051
17.0312	109.044
17.1295	109.038
17.2284	109.032
17.3278	109.026
17.4279	109.02
17.5285	109.014
17.6297	109.008
17.7315	109.003
17.8338	108.997
17.9368	108.992
18.0403	108.987
18.1445	108.982
18.2492	108.977
18.3546	108.972
18.4605	108.967
18.5671	108.963
18.6743	108.958
18.7821	108.954
18.8905	108.949
18.9996	108.945
19.1093	108.941
19.2196	108.937
19.3306	108.934
19.4422	108.93
19.5544	108.926
19.6673	108.923
19.7808	108.919
19.895	108.916
20.0099	108.913
20.1254	108.91
20.2416	108.907
20.3584	108.905
20.476	108.902
20.5942	108.899
20.7131	108.897
20.8326	108.895
20.9529	108.892
21.0739	108.89
21.1955	108.888
21.3179	108.887
21.441	108.885
21.5648	108.883
21.6892	108.882
21.8145	108.88
21.9404	108.879
22.0671	108.878
22.1945	108.877
22.3226	108.876
22.4515	108.875
22.5811	108.874
22.7114	108.874
22.8425	108.873
22.9744	108.873
23.107	108.872
23.2404	108.872
23.3746	108.872
23.5096	108.872
23.6453	108.873
23.7818	108.873
23.9191	108.873
24.0572	108.874
24.1961	108.874
24.3357	108.875
24.4762	108.876
24.6175	108.877
24.7596	108.878
24.9026	108.879
25.0464	108.88
25.1909	108.882
25.3364	108.883
25.4826	108.885
25.6298	108.887
25.7777	108.889
25.9265	108.891
26.0762	108.893
26.2268	108.895
26.3782	108.897
26.5304	108.899
26.6836	108.902
26.8376	108.905
26.9926	108.907
27.1484	108.91
27.3051	108.913
27.4628	108.916
27.6213	108.919
27.7808	108.923
27.9412	108.926
28.1025	108.929
28.2647	108.933
28.4279	108.937
28.592	108.94
28.7571	108.944
28.9231	108.948
29.0901	108.953
29.258	108.957
29.4269	108.961
29.5968	108.966
29.7676	108.97
29.9395	108.975
30.1123	108.98
30.2862	108.984
30.461	108.989
30.6369	108.995
30.8137	109
30.9916	109.005
31.1706	109.01
31.3505	109.016
31.5315	109.022
31.7135	109.027
31.8966	109.033
32.0807	109.039
32.266	109.045
32.4522	109.051
32.6396	109.058
32.828	109.064
33.0175	109.07
33.2081	109.077
33.3998	109.084
33.5927	109.09
33.7866	109.097
33.9817	109.104
34.1778	109.111
34.3751	109.119
34.5736	109.126
34.7732	109.133
34.9739	109.141
35.1758	109.148
35.3789	109.156
35.5832	109.164
35.7886	109.172
35.9952	109.18
36.203	109.188
36.412	109.196
36.6222	109.205
36.8336	109.213
37.0463	109.222
37.2601	109.23
37.4752	109.239
37.6916	109.248
37.9092	109.257
38.128	109.266
38.3482	109.275
38.5695	109.284
38.7922	109.294
39.0162	109.303
39.2414	109.313
39.4679	109.322
39.6958	109.332
39.925	109.342
40.1554	109.352
40.3873	109.362
40.6204	109.372
40.8549	109.382
41.0908	109.393
41.328	109.403
41.5666	109.414
41.8066	109.425
42.0479	109.435
42.2907	109.446
42.5348	109.457
42.7804	109.468
43.0273	109.479
43.2757	109.491
43.5256	109.502
43.7768	109.514
44.0296	109.525
44.2838	109.537
44.5394	109.549
44.7965	109.56
45.0552	109.572
45.3153	109.584
45.5769	109.597
45.84	109.609
46.1046	109.621
46.3708	109.634
46.6385	109.646
46.9077	109.659
47.1785	109.672
47.4509	109.685
47.7248	109.698
48.0004	109.711
48.2775	109.724
48.5562	109.737
48.8365	109.75
49.1184	109.764
49.402	109.777
49.6872	109.791
49.974	109.805
50.2625	109.818
50.5527	109.832
50.8446	109.846
51.1381	109.861
51.4333	109.875
51.7302	109.889
52.0289	109.903
52.3292	109.918
52.6313	109.933
52.9352	109.947
53.2408	109.962
53.5482	109.977
53.8573	109.992
54.1682	110.007
54.4809	110.022
54.7954	110.037
55.1118	110.053
55.4299	110.068
55.7499	110.084
56.0718	110.099
56.3955	110.115
56.7211	110.131
57.0485	110.147
57.3779	110.163
57.7091	110.179
58.0423	110.195
58.3774	110.212
58.7144	110.228
59.0533	110.245
59.3943	110.261
59.7371	110.278
60.082	110.295
60.4289	110.311
60.7777	110.328
61.1286	110.346
61.4815	110.363
61.8364	110.38
62.1934	110.397
62.5525	110.415
62.9136	110.432
63.2768	110.45
63.6421	110.468
64.0095	110.485
64.379	110.503
64.7507	110.521
65.1245	110.539
65.5005	110.557
65.8786	110.576
66.2589	110.594
66.6415	110.612
67.0262	110.631
67.4131	110.65
67.8023	110.668
68.1937	110.687
68.5874	110.706
68.9834	110.725
69.3816	110.744
69.7822	110.763
70.185	110.783
70.5902	110.802
70.9977	110.821
71.4076	110.841
71.8198	110.861
72.2345	110.88
72.6515	110.9
73.0709	110.92
73.4927	110.94
73.917	110.96
74.3438	110.98
74.7729	111
75.2046	111.021
75.6388	111.041
76.0754	111.062
76.5146	111.082
76.9564	111.103
77.4006	111.124
77.8475	111.145
78.2969	111.166
78.7489	111.187
79.2035	111.208
79.6608	111.229
80.1207	111.25
80.5832	111.272
81.0484	111.293
81.5163	111.315
81.9869	111.337
82.4602	111.358
82.9363	111.38
83.4151	111.402
83.8966	111.424
84.381	111.446
84.8681	111.469
85.358	111.491
85.8508	111.513
86.3464	111.536
86.8449	111.558
87.3463	111.581
87.8505	111.604
88.3577	111.626
88.8678	111.649
89.3808	111.672
89.8969	111.695
90.4158	111.719
90.9378	111.742
91.4628	111.765
91.9908	111.789
92.5219	111.812
93.056	111.836
93.5932	111.859
94.1336	111.883
94.677	111.907
95.2236	111.931
95.7733	111.955
96.3262	111.979
96.8823	112.003
97.4416	112.028
98.0042	112.052
98.5699	112.076
99.139	112.101
99.7113	112.126
100.287	112.15
100.866	112.175
101.448	112.2
102.034	112.225
102.623	112.25
103.215	112.275
103.811	112.3
104.411	112.326
105.013	112.351
105.62	112.376
106.229	112.402
106.843	112.428
107.459	112.453
108.08	112.479
108.704	112.505
109.331	112.531
109.962	112.557
110.597	112.583
111.236	112.609
111.878	112.636
112.524	112.662
113.173	112.689
113.827	112.715
114.484	112.742
115.145	112.768
115.81	112.795
116.478	112.822
117.151	112.849
117.827	112.876
118.507	112.903
119.191	112.93
119.879	112.958
120.571	112.985
121.268	113.013
121.968	113.04
122.672	113.068
123.38	113.095
124.092	113.123
124.809	113.151
125.529	113.179
126.254	113.207
126.983	113.235
127.716	113.263
128.453	113.292
129.195	113.32
129.94	113.348
130.691	113.377
131.445	113.406
132.204	113.434
132.967	113.463
133.735	113.492
134.507	113.521
135.283	113.55
136.064	113.579
136.85	113.608
137.64	113.637
138.435	113.667
139.234	113.696
140.038	113.725
140.846	113.755
141.659	113.785
142.477	113.814
143.299	113.844
144.127	113.874
144.959	113.904
145.796	113.934
146.637	113.964
147.484	113.994
148.335	114.025
149.192	114.055
150.053	114.086
150.919	114.116
151.79	114.147
152.667	114.177
153.548	114.208
154.435	114.239
155.326	114.27
156.223	114.301
157.125	114.332
158.032	114.363
158.944	114.394
159.862	114.426
160.785	114.457
161.713	114.488
162.646	114.52
163.585	114.552
164.53	114.583
165.48	114.615
166.435	114.647
167.396	114.679
168.362	114.711
169.334	114.743
170.312	114.775
171.295	114.807
172.284	114.84
173.278	114.872
174.279	114.904
175.285	114.937
176.297	114.97
177.315	115.002
178.338	115.035
179.368	115.068
180.403	115.101
181.445	115.134
182.492	115.167
183.546	115.2
184.605	115.233
185.671	115.267
186.743	115.3
187.821	115.334
188.905	115.367
189.996	115.401
191.093	115.434
192.196	115.468
193.306	115.502
194.422	115.536
195.544	115.57
196.673	115.604
197.808	115.638
198.95	115.672
200.099	115.707
201.254	115.741
202.416	115.776
203.584	115.81
204.76	115.845
205.942	115.879
207.131	115.914
208.326	115.949
209.529	115.984
210.739	116.019
211.955	116.054
213.179	116.089
214.41	116.124
215.648	116.159
216.892	116.195
218.145	116.23
219.404	116.266
220.671	116.301
221.945	116.337
223.226	116.373
224.515	116.408
225.811	116.444
227.114	116.48
228.425	116.516
229.744	116.552
231.07	116.589
232.404	116.625
233.746	116.661
235.096	116.698
236.453	116.734
237.818	116.771
239.191	116.807
240.572	116.844
241.961	116.881
243.357	116.917
244.762	116.954
246.175	116.991
247.596	117.028
249.026	117.065
250.464	117.103
251.909	117.14
253.364	117.177
254.826	117.215
256.298	117.252
257.777	117.29
259.265	117.327
260.762	117.365
262.268	117.403
263.782	117.441
265.304	117.479
266.836	117.517
268.376	117.555
269.926	117.593
271.484	117.631
273.051	117.669
274.628	117.708
276.213	117.746
277.808	117.784
279.412	117.823
281.025	117.862
282.647	117.9
284.279	117.939
285.92	117.978
287.571	118.017
289.231	118.056
290.901	118.095
292.58	118.134
294.269	118.173
295.968	118.213
297.676	118.252
299.395	118.291
301.123	118.331
302.862	118.37
304.61	118.41
306.369	118.45
308.137	118.49
309.916	118.529
311.706	118.569
313.505	118.609
315.315	118.649
317.135	118.69
318.966	118.73
320.807	118.77
322.66	118.81
324.522	118.851
326.396	118.891
328.28	118.932
330.175	118.972
332.081	119.013
333.998	119.054
335.927	119.095
337.866	119.136
339.817	119.177
341.778	119.218
343.751	119.259
345.736	119.3
347.732	119.341
349.739	119.382
351.758	119.424
353.789	119.465
355.832	119.507
357.886	119.548
359.952	119.59
362.03	119.632
364.12	119.674
366.222	119.716
368.336	119.758
370.463	119.8
372.601	119.842
374.752	119.884
376.916	119.926
379.092	119.968
381.28	120.011
383.482	120.053
385.695	120.096
387.922	120.138
390.162	120.181
392.414	120.223
394.679	120.266
396.958	120.309
399.25	120.352
401.554	120.395
403.873	120.438
406.204	120.481
408.549	120.524
410.908	120.568
413.28	120.611
415.666	120.654
418.066	120.698
420.479	120.741
422.907	120.785
425.348	120.828
427.804	120.872
430.273	120.916
432.757	120.96
435.256	121.004
437.768	121.048
440.296	121.092
442.838	121.136
445.394	121.18
447.965	121.224
450.552	121.269
453.153	121.313
455.769	121.358
458.4	121.402
461.046	121.447
463.708	121.491
466.385	121.536
469.077	121.581
471.785	121.626
474.509	121.671
477.248	121.716
480.004	121.761
482.775	121.806
485.562	121.851
488.365	121.896
491.184	121.942
494.02	121.987
496.872	122.033
499.74	122.078
502.625	122.124
505.527	122.169
508.446	122.215
511.381	122.261
514.333	122.307
517.302	122.353
520.289	122.399
523.292	122.445
526.313	122.491
529.352	122.537
532.408	122.583
535.482	122.63
538.573	122.676
541.682	122.723
544.809	122.769
547.954	122.816
551.118	122.862
554.299	122.909
557.499	122.956
560.718	123.003
563.955	123.05
567.211	123.097
570.485	123.144
573.779	123.191
577.091	123.238
580.423	123.285
583.774	123.332
587.144	123.38
590.533	123.427
593.943	123.475
597.371	123.522
600.82	123.57
604.289	123.618
607.777	123.666
611.286	123.713
614.815	123.761
618.364	123.809
621.934	123.857
625.525	123.905
629.136	123.953
632.768	124.002
636.421	124.05
640.095	124.098
643.79	124.147
647.507	124.195
651.245	124.244
655.005	124.292
658.786	124.341
662.589	124.39
666.415	124.439
670.262	124.487
674.131	124.536
678.023	124.585
681.937	124.634
685.874	124.684
689.834	124.733
693.816	124.782
697.822	124.831
701.85	124.881
705.902	124.93
709.977	124.98
714.076	125.029
718.198	125.079
722.345	125.129
726.515	125.178
730.709	125.228
734.927	125.278
739.17	125.328
743.438	125.378
747.729	125.428
752.046	125.478
756.388	125.529
760.754	125.579
765.146	125.629
769.564	125.68
774.006	125.73
778.475	125.781
782.969	125.831
787.489	125.882
792.035	125.933
796.608	125.983
801.207	126.034
805.832	126.085
810.484	126.136
815.163	126.187
819.869	126.238
824.602	126.289
829.363	126.341
834.151	126.392
838.966	126.443
843.81	126.495
848.681	126.546
853.58	126.598
858.508	126.649
863.464	126.701
868.449	126.753
873.463	126.804
878.505	126.856
883.577	126.908
888.678	126.96
893.808	127.012
898.969	127.064
904.158	127.116
909.378	127.169
914.628	127.221
919.908	127.273
925.219	127.326
930.56	127.378
935.932	127.431
941.336	127.483
946.77	127.536
952.236	127.589
957.733	127.642
963.262	127.694
968.823	127.747
974.416	127.8
980.042	127.853
985.699	127.906
991.39	127.96
997.113	128.013
1002.87	128.066
1008.66	128.119
1014.48	128.173
1020.34	128.226
1026.23	128.28
1032.15	128.333
1038.11	128.387
1044.11	128.441
1050.13	128.495
1056.2	128.548
1062.29	128.602
1068.43	128.656
1074.59	128.71
1080.8	128.764
1087.04	128.819
1093.31	128.873
1099.62	128.927
1105.97	128.981
1112.36	129.036
1118.78	129.09
1125.24	129.145
1131.73	129.199
1138.27	129.254
1144.84	129.309
1151.45	129.364
1158.1	129.418
1164.78	129.473
1171.51	129.528
1178.27	129.583
1185.07	129.638
1191.91	129.693
1198.79	129.749
1205.71	129.804
1212.68	129.859
1219.68	129.915
1226.72	129.97
1233.8	130.025
1240.92	130.081
1248.09	130.137
1255.29	130.192
1262.54	130.248
1269.83	130.304
1277.16	130.36
1284.53	130.416
1291.95	130.472
1299.4	130.528
1306.91	130.584
1314.45	130.64
1322.04	130.696
1329.67	130.752
1337.35	130.809
1345.07	130.865
1352.83	130.922
1360.64	130.978
1368.5	131.035
1376.4	131.091
1384.35	131.148
1392.34	131.205
1400.38	131.262
1408.46	131.319
1416.59	131.376
1424.77	131.433
1432.99	131.49
1441.27	131.547
1449.59	131.604
1457.96	131.661
1466.37	131.719
1474.84	131.776
1483.35	131.833
1491.92	131.891
1500.53	131.948
1509.19	132.006
1517.9	132.064
1526.67	132.121
1535.48	132.179
1544.35	132.237
1553.26	132.295
1562.23	132.353
1571.25	132.411
1580.32	132.469
1589.44	132.527
1598.62	132.585
1607.85	132.644
1617.13	132.702
1626.46	132.76
1635.85	132.819
1645.3	132.877
1654.8	132.936
1664.35	132.995
1673.96	133.053
1683.62	133.112
1693.34	133.171
1703.12	133.23
1712.95	133.289
1722.84	133.348
1732.78	133.407
1742.79	133.466
1752.85	133.525
1762.97	133.584
1773.15	133.644
1783.38	133.703
1793.68	133.762
1804.03	133.822
1814.45	133.881
1824.92	133.941
1835.46	134
1846.05	134.06
1856.71	134.12
1867.43	134.18
1878.21	134.24
1889.05	134.3
1899.96	134.36
1910.93	134.42
1921.96	134.48
1933.06	134.54
1944.22	134.6
1955.44	134.66
1966.73	134.721
1978.08	134.781
1989.5	134.842
2000.99	134.902
2012.54	134.963
2024.16	135.023
2035.84	135.084
2047.6	135.145
2059.42	135.206
2071.31	135.267
2083.26	135.328
2095.29	135.389
2107.39	135.45
2119.55	135.511
2131.79	135.572
2144.1	135.633
2156.48	135.694
2168.92	135.756
2181.45	135.817
2194.04	135.879
2206.71	135.94
2219.45	136.002
2232.26	136.063
2245.15	136.125
2258.11	136.187
2271.14	136.249
2284.25	136.311
2297.44	136.373
2310.7	136.435
2324.04	136.497
2337.46	136.559
2350.96	136.621
2364.53	136.683
2378.18	136.745
2391.91	136.808
2405.72	136.87
2419.61	136.933
2433.57	136.995
2447.62	137.058
2461.75	137.12
2475.96	137.183
2490.26	137.246
2504.64	137.309
2519.09	137.372
2533.64	137.435
2548.26	137.498
2562.98	137.561
2577.77	137.624
2592.65	137.687
2607.62	137.75
2622.68	137.813
2637.82	137.877
2653.04	137.94
2668.36	138.004
2683.76	138.067
2699.26	138.131
2714.84	138.194
2730.51	138.258
2746.28	138.322
2762.13	138.386
2778.08	138.449
2794.12	138.513
2810.25	138.577
2826.47	138.641
2842.79	138.705
2859.2	138.77
2875.71	138.834
2892.31	138.898
2909.01	138.962
2925.8	139.027
2942.69	139.091
2959.68	139.156
2976.76	139.22
2993.95	139.285
3011.23	139.35
3028.62	139.414
3046.1	139.479
3063.69	139.544
3081.37	139.609
3099.16	139.674
3117.06	139.739
3135.05	139.804
3153.15	139.869
3171.35	139.934
3189.66	140
3208.07	140.065
3226.6	140.13
3245.22	140.196
3263.96	140.261
3282.8	140.327
3301.75	140.392
3320.81	140.458
3339.98	140.524
3359.27	140.59
3378.66	140.655
3398.17	140.721
3417.78	140.787
3437.51	140.853
3457.36	140.919
3477.32	140.985
3497.39	141.052
3517.58	141.118
3537.89	141.184
3558.32	141.25
3578.86	141.317
3599.52	141.383
3620.3	141.45
3641.2	141.516
3662.22	141.583
3683.36	141.65
3704.63	141.717
3726.01	141.783
3747.52	141.85
3769.16	141.917
3790.92	141.984
3812.8	142.051
3834.82	142.118
3856.95	142.185
3879.22	142.253
3901.62	142.32
3924.14	142.387
3946.79	142.455
3969.58	142.522
3992.5	142.59
4015.54	142.657
4038.73	142.725
4062.04	142.792
4085.49	142.86
4109.08	142.928
4132.8	142.996
4156.66	143.064
4180.66	143.132
4204.79	143.2
4229.07	143.268
4253.48	143.336
4278.04	143.404
4302.73	143.472
4327.57	143.541
4352.56	143.609
4377.68	143.677
4402.96	143.746
4428.38	143.815
4453.94	143.883
4479.65	143.952
4505.52	144.02
4531.53	144.089
4557.69	144.158
4584	144.227
4610.46	144.296
4637.08	144.365
4663.85	144.434
4690.77	144.503
4717.85	144.572
4745.09	144.641
4772.48	144.711
4800.04	144.78
4827.75	144.849
4855.62	144.919
4883.65	144.988
4911.84	145.058
4940.2	145.128
4968.72	145.197
4997.4	145.267
5026.25	145.337
5055.27	145.407
5084.46	145.477
5113.81	145.546
5143.33	145.617
5173.02	145.687
5202.89	145.757
5232.92	145.827
5263.13	145.897
5293.52	145.967
5324.08	146.038
5354.82	146.108
5385.73	146.179
5416.82	146.249
5448.09	146.32
5479.54	146.391
5511.18	146.461
5542.99	146.532
5574.99	146.603
5607.18	146.674
5639.55	146.745
5672.11	146.816
5704.85	146.887
5737.79	146.958
5770.91	147.029
5804.23	147.1
5837.74	147.171
5871.44	147.243
5905.33	147.314
5939.43	147.386
5973.71	147.457
6008.2	147.529
6042.89	147.6
6077.77	147.672
6112.86	147.744
6148.15	147.815
6183.64	147.887
6219.34	147.959
6255.25	148.031
6291.36	148.103
6327.68	148.175
6364.21	148.247
6400.95	148.32
6437.9	148.392
6475.07	148.464
6512.45	148.536
6550.05	148.609
6587.86	148.681
6625.89	148.754
6664.15	148.826
6702.62	148.899
6741.31	148.972
6780.23	149.045
6819.37	149.117
6858.74	149.19
6898.34	149.263
6938.16	149.336
6978.22	149.409
7018.5	149.482
7059.02	149.555
7099.77	149.629
7140.76	149.702
7181.98	149.775
7223.45	149.849
7265.15	149.922
7307.09	149.996
7349.27	150.069
7391.7	150.143
7434.38	150.216
7477.29	150.29
7520.46	150.364
7563.88	150.438
7607.54	150.512
7651.46	150.586
7695.64	150.66
7740.06	150.734
7784.75	150.808
7829.69	150.882
7874.89	150.956
7920.35	151.03
7966.08	151.105
8012.07	151.179
8058.32	151.254
8104.84	151.328
8151.63	151.403
8198.69	151.477
8246.02	151.552
8293.63	151.627
8341.51	151.702
8389.66	151.777
8438.1	151.851
8486.81	151.926
8535.8	152.001
8585.08	152.077
8634.64	152.152
8684.49	152.227
8734.63	152.302
8785.05	152.377
8835.77	152.453
8886.78	152.528
8938.08	152.604
8989.69	152.679
9041.58	152.755
9093.78	152.831
9146.28	152.906
9199.08	152.982
9252.19	153.058
9305.6	153.134
9359.32	153.21
9413.36	153.286
9467.7	153.362
9522.36	153.438
9577.33	153.514
9632.62	153.59
9688.23	153.667
9744.16	153.743
9800.42	153.819
9856.99	153.896
9913.9	153.972
9971.13	154.049
10028.7	154.125
10086.6	154.202
10144.8	154.279
10203.4	154.356
10262.3	154.432
10321.5	154.509
10381.1	154.586
10441.1	154.663
10501.3	154.74
10562	154.818
10622.9	154.895
10684.3	154.972
10745.9	155.049
10808	155.127
10870.4	155.204
10933.1	155.282
10996.2	155.359
11059.7	155.437
11123.6	155.514
11187.8	155.592
11252.4	155.67
11317.3	155.748
11382.7	155.825
11448.4	155.903
11514.5	155.981
11581	156.059
11647.8	156.138
11715.1	156.216
11782.7	156.294
11850.7	156.372
11919.1	156.451
11987.9	156.529
12057.1	156.607
12126.8	156.686
12196.8	156.764
12267.2	156.843
12338	156.922
12409.2	157
12480.9	157.079
12552.9	157.158
12625.4	157.237
12698.3	157.316
12771.6	157.395
12845.3	157.474
12919.5	157.553
12994	157.632
13069.1	157.712
13144.5	157.791
13220.4	157.87
13296.7	157.95
13373.5	158.029
13450.7	158.109
13528.3	158.188
13606.4	158.268
13685	158.348
13764	158.427
13843.5	158.507
13923.4	158.587
14003.8	158.667
14084.6	158.747
14165.9	158.827
14247.7	158.907
14329.9	158.987
14412.7	159.067
14495.9	159.148
14579.6	159.228
14663.7	159.308
14748.4	159.389
14833.5	159.469
14919.2	159.55
15005.3	159.63
15091.9	159.711
15179	159.792
15266.7	159.873
15354.8	159.953
15443.5	160.034
15532.6	160.115
15622.3	160.196
15712.5	160.277
15803.2	160.359
15894.4	160.44
15986.2	160.521
16078.5	160.602
16171.3	160.684
16264.6	160.765
16358.5	160.846
16453	160.928
16548	161.01
16643.5	161.091
16739.6	161.173
16836.2	161.255
16933.4	161.336
17031.2	161.418
17129.5	161.5
17228.4	161.582
17327.8	161.664
17427.9	161.746
17528.5	161.829
17629.7	161.911
17731.5	161.993
17833.8	162.075
17936.8	162.158
18040.3	162.24
18144.5	162.323
18249.2	162.405
18354.6	162.488
18460.5	162.571
18567.1	162.653
18674.3	162.736
18782.1	162.819
18890.5	162.902
18999.6	162.985
19109.3	163.068
19219.6	163.151
19330.6	163.234
19442.2	163.317
19554.4	163.4
19667.3	163.484
19780.8	163.567
19895	163.651
20009.9	163.734
20125.4	163.818
20241.6	163.901
20358.4	163.985
20476	164.068
20594.2	164.152
20713.1	164.236
20832.6	164.32
20952.9	164.404
21073.9	164.488
21195.5	164.572
21317.9	164.656
21441	164.74
21564.8	164.824
21689.2	164.909
21814.5	164.993
21940.4	165.077
22067.1	165.162
22194.5	165.246
22322.6	165.331
22451.5	165.416
22581.1	165.5
22711.4	165.585
22842.5	165.67
22974.4	165.755
23107	165.84
23240.4	165.925
23374.6	166.01
23509.6	166.095
23645.3	166.18
23781.8	166.265
23919.1	166.35
24057.2	166.436
24196.1	166.521
24335.7	166.606
24476.2	166.692
24617.5	166.777
24759.6	166.863
24902.6	166.949
25046.4	167.034
25190.9	167.12
25336.4	167.206
25482.6	167.292
25629.8	167.378
25777.7	167.464
25926.5	167.55
26076.2	167.636
26226.8	167.722
26378.2	167.809
26530.4	167.895
26683.6	167.981
26837.6	168.068
26992.6	168.154
27148.4	168.241
27305.1	168.327
27462.8	168.414
27621.3	168.501
27780.8	168.587
27941.2	168.674
28102.5	168.761
28264.7	168.848
28427.9	168.935
28592	169.022
28757.1	169.109
28923.1	169.196
29090.1	169.284
29258	169.371
29426.9	169.458
29596.8	169.546
29767.6	169.633
29939.5	169.721
30112.3	169.808
30286.2	169.896
30461	169.984
30636.9	170.071
30813.7	170.159
30991.6	170.247
31170.6	170.335
31350.5	170.423
31531.5	170.511
31713.5	170.599
31896.6	170.687
32080.7	170.775
32266	170.864
32452.2	170.952
32639.6	171.04
32828	171.129
33017.5	171.217
33208.1	171.306
33399.8	171.395
33592.7	171.483
33786.6	171.572
33981.7	171.661
34177.8	171.75
34375.1	171.839
34573.6	171.928
34773.2	172.017
34973.9	172.106
35175.8	172.195
35378.9	172.284
35583.2	172.373
35788.6	172.463
35995.2	172.552
36203	172.642
36412	172.731
36622.2	172.821
36833.6	172.91
37046.3	173
37260.1	173.09
37475.2	173.18
37691.6	173.269
37909.2	173.359
38128	173.449
38348.2	173.539
38569.5	173.629
38792.2	173.72
39016.2	173.81
39241.4	173.9
39467.9	173.99
39695.8	174.081
39925	174.171
40155.4	174.262
40387.3	174.352
40620.4	174.443
40854.9	174.534
41090.8	174.624
41328	174.715
41566.6	174.806
41806.6	174.897
42047.9	174.988
42290.7	175.079
42534.8	175.17
42780.4	175.261
43027.3	175.352
43275.7	175.444
43525.6	175.535
43776.8	175.626
44029.6	175.718
44283.8	175.809
44539.4	175.901
44796.5	175.993
45055.2	176.084
45315.3	176.176
45576.9	176.268
45840	176.36
46104.6	176.452
46370.8	176.544
46638.5	176.636
46907.7	176.728
47178.5	176.82
47450.9	176.912
47724.8	177.004
48000.4	177.097
48277.5	177.189
48556.2	177.281
48836.5	177.374
49118.4	177.467
49402	177.559
49687.2	177.652
49974	177.745
50262.5	177.837
50552.7	177.93
50844.6	178.023
51138.1	178.116
51433.3	178.209
51730.2	178.302
52028.9	178.396
52329.2	178.489
52631.3	178.582
52935.2	178.675
53240.8	178.769
53548.2	178.862
53857.3	178.956
54168.2	179.049
54480.9	179.143
54795.4	179.237
55111.8	179.331
55429.9	179.424
55749.9	179.518
56071.8	179.612
56395.5	179.706
56721.1	179.8
57048.5	179.894
57377.9	179.989
57709.1	180.083
58042.3	180.177
58377.4	180.271
58714.4	180.366
59053.3	180.46
59394.3	180.555
59737.1	180.649
60082	180.744
60428.9	180.839
60777.7	180.934
61128.6	181.028
61481.5	181.123
61836.4	181.218
62193.4	181.313
62552.5	181.408
62913.6	181.504
63276.8	181.599
63642.1	181.694
64009.5	181.789
64379	181.885
64750.7	181.98
65124.5	182.076
65500.5	182.171
65878.6	182.267
66258.9	182.363
66641.5	182.458
67026.2	182.554
67413.1	182.65
67802.3	182.746
68193.7	182.842
68587.4	182.938
68983.4	183.034
69381.6	183.13
69782.2	183.226
70185	183.323
70590.2	183.419
70997.7	183.515
71407.6	183.612
71819.8	183.708
72234.5	183.805
72651.5	183.902
73070.9	183.998
73492.7	184.095
73917	184.192
74343.8	184.289
74772.9	184.386
75204.6	184.483
75638.8	184.58
76075.4	184.677
76514.6	184.774
76956.4	184.871
77400.6	184.969
77847.5	185.066
78296.9	185.164
78748.9	185.261
79203.5	185.359
79660.8	185.456
80120.7	185.554
80583.2	185.652
81048.4	185.749
81516.3	185.847
81986.9	185.945
82460.2	186.043
82936.3	186.141
83415.1	186.239
83896.6	186.337
84381	186.436
84868.1	186.534
85358	186.632
85850.8	186.731
86346.4	186.829
86844.9	186.928
87346.3	187.026
87850.5	187.125
88357.7	187.224
88867.8	187.322
89380.8	187.421
89896.9	187.52
90415.8	187.619
90937.8	187.718
91462.8	187.817
91990.8	187.916
92521.9	188.016
93056	188.115
93593.2	188.214
94133.6	188.314
94677	188.413
95223.6	188.513
95773.3	188.612
96326.2	188.712
96882.3	188.811
97441.6	188.911
98004.2	189.011
98569.9	189.111
99139	189.211
99711.3	189.311
100287	189.411
100866	189.511
101448	189.611
102034	189.711
102623	189.812
103215	189.912
103811	190.013
104411	190.113
105013	190.214
105620	190.314
106229	190.415
106843	190.516
107459	190.616
108080	190.717
108704	190.818
109331	190.919
109962	191.02
110597	191.121
111236	191.223
111878	191.324
112524	191.425
113173	191.526
113827	191.628
114484	191.729
115145	191.831
115810	191.933
116478	192.034
117151	192.136
117827	192.238
118507	192.34
119191	192.442
119879	192.543
120571	192.646
121268	192.748
121968	192.85
122672	192.952
123380	193.054
124092	193.157
124809	193.259
125529	193.362
126254	193.464
126983	193.567
127716	193.669
128453	193.772
129195	193.875
129940	193.978
130691	194.081
131445	194.184
132204	194.287
132967	194.39
133735	194.493
134507	194.596
135283	194.699
136064	194.803
136850	194.906
137640	195.01
138435	195.113
139234	195.217
140038	195.321
140846	195.424
141659	195.528
142477	195.632
143299	195.736
144127	195.84
144959	195.944
145796	196.048
146637	196.152
147484	196.256
148335	196.361
149192	196.465
150053	196.569
150919	196.674
151790	196.779
152667	196.883
153548	196.988
154435	197.093
155326	197.197
156223	197.302
157125	197.407
158032	197.512
158944	197.617
159862	197.722
160785	197.827
161713	197.933
162646	198.038
163585	198.143
164530	198.249
165480	198.354
166435	198.46
167396	198.566
168362	198.671
169334	198.777
170312	198.883
171295	198.989
172284	199.095
173278	199.201
174279	199.307
175285	199.413
176297	199.519
177315	199.625
178338	199.732
179368	199.838
180403	199.944
181445	200.051
182492	200.158
183546	200.264
184605	200.371
185671	200.478
186743	200.585
187821	200.691
188905	200.798
189996	200.905
191093	201.013
192196	201.12
193306	201.227
194422	201.334
195544	201.442
196673	201.549
197808	201.656
198950	201.764
200099	201.872
201254	201.979
202416	202.087
203584	202.195
204760	202.303
205942	202.411
207131	202.519
208326	202.627
209529	202.735
210739	202.843
211955	202.951
213179	203.059
214410	203.168
215648	203.276
216892	203.385
218145	203.493
219404	203.602
220671	203.711
221945	203.819
223226	203.928
224515	204.037
225811	204.146
227114	204.255
228425	204.364
229744	204.473
231070	204.583
232404	204.692
233746	204.801
235096	204.911
236453	205.02
237818	205.13
239191	205.239
240572	205.349
241961	205.459
243357	205.569
244762	205.678
246175	205.788
247596	205.898
249026	206.008
250464	206.119
251909	206.229
253364	206.339
254826	206.449
256298	206.56
257777	206.67
259265	206.781
260762	206.891
262268	207.002
263782	207.113
265304	207.223
266836	207.334
268376	207.445
269926	207.556
271484	207.667
273051	207.778
274628	207.89
276213	208.001
277808	208.112
279412	208.223
281025	208.335
282647	208.446
284279	208.558
285920	208.67
287571	208.781
289231	208.893
290901	209.005
292580	209.117
294269	209.229
295968	209.341
297676	209.453
299395	209.565
301123	209.677
302862	209.79
304610	209.902
306369	210.014
308137	210.127
309916	210.239
311706	210.352
313505	210.465
315315	210.578
317135	210.69
318966	210.803
320807	210.916
322660	211.029
324522	211.142
326396	211.256
328280	211.369
330175	211.482
332081	211.595
333998	211.709
335927	211.822
337866	211.936
339817	212.05
341778	212.163
343751	212.277
345736	212.391
347732	212.505
349739	212.619
351758	212.733
353789	212.847
355832	212.961
357886	213.075
359952	213.189
362030	213.304
364120	213.418
366222	213.533
368336	213.647
370463	213.762
372601	213.877
374752	213.991
376916	214.106
379092	214.221
381280	214.336
383482	214.451
385695	214.566
387922	214.681
390162	214.797
392414	214.912
394679	215.027
396958	215.143
399250	215.258
401554	215.374
403873	215.489
406204	215.605
408549	215.721
410908	215.837
413280	215.953
415666	216.069
418066	216.185
420479	216.301
422907	216.417
425348	216.533
427804	216.649
430273	216.766
432757	216.882
435256	216.999
437768	217.115
440296	217.232
442838	217.349
445394	217.466
447965	217.582
450552	217.699
453153	217.816
455769	217.933
458400	218.051
461046	218.168
463708	218.285
466385	218.402
469077	218.52
471785	218.637
474509	218.755
477248	218.872
480004	218.99
482775	219.108
485562	219.226
488365	219.343
491184	219.461
494020	219.579
496872	219.698
499740	219.816
502625	219.934
505527	220.052
508446	220.171
511381	220.289
514333	220.407
517302	220.526
520289	220.645
523292	220.763
526313	220.882
529352	221.001
532408	221.12
535482	221.239
538573	221.358
541682	221.477
544809	221.596
547954	221.715
551118	221.835
554299	221.954
557499	222.074
560718	222.193
563955	222.313
567211	222.432
570485	222.552
573779	222.672
577091	222.792
580423	222.912
583774	223.032
587144	223.152
590533	223.272
593943	223.392
597371	223.513
600820	223.633
604289	223.753
607777	223.874
611286	223.994
614815	224.115
618364	224.236
621934	224.357
625525	224.477
629136	224.598
632768	224.719
636421	224.84
640095	224.962
643790	225.083
647507	225.204
651245	225.325
655005	225.447
658786	225.568
662589	225.69
666415	225.811
670262	225.933
674131	226.055
678023	226.177
681937	226.299
685874	226.421
689834	226.543
693816	226.665
697822	226.787
701850	226.909
705902	227.032
709977	227.154
714076	227.276
718198	227.399
722345	227.522
726515	227.644
730709	227.767
734927	227.89
739170	228.013
743438	228.136
747729	228.259
752046	228.382
756388	228.505
760754	228.628
765146	228.751
769564	228.875
774006	228.998
778475	229.122
782969	229.245
787489	229.369
792035	229.493
796608	229.617
801207	229.741
805832	229.864
810484	229.989
815163	230.113
819869	230.237
824602	230.361
829363	230.485
834151	230.61
838966	230.734
843810	230.859
848681	230.983
853580	231.108
858508	231.233
863464	231.357
868449	231.482
873463	231.607
878505	231.732
883577	231.857
888678	231.983
893808	232.108
898969	232.233
904158	232.358
909378	232.484
914628	232.609
919908	232.735
925219	232.861
930560	232.986
935932	233.112
941336	233.238
946770	233.364
952236	233.49
957733	233.616
963262	233.742
968823	233.869
974416	233.995
980042	234.121
985699	234.248
991390	234.374
997113	234.501
1.00287e+06	234.628
1.00866e+06	234.754
1.01448e+06	234.881
1.02034e+06	235.008
1.02623e+06	235.135
1.03215e+06	235.262
1.03811e+06	235.389
1.04411e+06	235.516
1.05013e+06	235.644
1.0562e+06	235.771
1.06229e+06	235.898
1.06843e+06	236.026
1.07459e+06	236.153
1.0808e+06	236.281
1.08704e+06	236.409
1.09331e+06	236.537
1.09962e+06	236.664
1.10597e+06	236.792
1.11236e+06	236.92
1.11878e+06	237.048
1.12524e+06	237.176
1.13173e+06	237.305
1.13827e+06	237.433
1.14484e+06	237.561
1.15145e+06	237.69
1.1581e+06	237.818
1.16478e+06	237.947
1.17151e+06	238.075
1.17827e+06	238.204
1.18507e+06	238.333
1.19191e+06	238.462
1.19879e+06	238.591
1.20571e+06	238.72
1.21268e+06	238.849
1.21968e+06	238.978
1.22672e+06	239.107
1.2338e+06	239.237
1.24092e+06	239.366
1.24809e+06	239.495
1.25529e+06	239.625
1.26254e+06	239.755
1.26983e+06	239.884
1.27716e+06	240.014
1.28453e+06	240.144
1.29195e+06	240.274
1.2994e+06	240.404
1.30691e+06	240.534
1.31445e+06	240.664
1.32204e+06	240.794
1.32967e+06	240.924
1.33735e+06	241.055
1.34507e+06	241.185
1.35283e+06	241.316
1.36064e+06	241.446
1.3685e+06	241.577
1.3764e+06	241.707
1.38435e+06	241.838
1.39234e+06	241.969
1.40038e+06	242.1
1.40846e+06	242.231
1.41659e+06	242.362
1.42477e+06	242.493
1.43299e+06	242.625
1.44127e+06	242.756
1.44959e+06	242.887
1.45796e+06	243.019
1.46637e+06	243.15
1.47484e+06	243.282
1.48335e+06	243.413
1.49192e+06	243.545
1.50053e+06	243.677
1.50919e+06	243.809
1.5179e+06	243.941
1.52667e+06	244.073
1.53548e+06	244.205
1.54435e+06	244.337
1.55326e+06	244.47
1.56223e+06	244.602
1.57125e+06	244.734
1.58032e+06	244.867
1.58944e+06	245
1.59862e+06	245.132
1.60785e+06	245.265
1.61713e+06	245.398
1.62646e+06	245.531
1.63585e+06	245.664
1.6453e+06	245.797
1.6548e+06	245.93
1.66435e+06	246.063
1.67396e+06	246.196
1.68362e+06	246.329
1.69334e+06	246.463
1.70312e+06	246.596
1.71295e+06	246.73
1.72284e+06	246.864
1.73278e+06	246.997
1.74279e+06	247.131
1.75285e+06	247.265
1.76297e+06	247.399
1.77315e+06	247.533
1.78338e+06	247.667
1.79368e+06	247.801
1.80403e+06	247.935
1.81445e+06	248.07
1.82492e+06	248.204
1.83546e+06	248.339
1.84605e+06	248.473
1.85671e+06	248.608
1.86743e+06	248.742
1.87821e+06	248.877
1.88905e+06	249.012
1.89996e+06	249.147
1.91093e+06	249.282
1.92196e+06	249.417
1.93306e+06	249.552
1.94422e+06	249.687
1.95544e+06	249.823
1.96673e+06	249.958
1.97808e+06	250.094
1.9895e+06	250.229
