# Total cross section of inelastic gamma-proton interactions from Sophia
# photon energy E [GeV]    cross section [mu b]
0.151563	0.265723
0.152438	1.26808
0.153318	3.59997
0.154203	6.2027
0.155093	8.96379
0.155988	11.8314
0.156889	14.7744
0.157794	17.7714
0.158705	20.8071
0.159622	23.8698
0.160543	26.9501
0.16147	30.0408
0.162402	33.1357
0.16334	36.23
0.164283	39.3195
0.165231	42.4009
0.166185	45.4712
0.167144	48.5281
0.168109	51.5697
0.16908	54.5942
0.170056	57.6005
0.171038	60.5873
0.172025	63.554
0.173018	66.4999
0.174017	69.4245
0.175022	72.3275
0.176032	75.209
0.177048	78.0688
0.17807	80.9071
0.179098	83.7242
0.180132	86.5205
0.181172	89.2965
0.182218	92.0527
0.18327	94.7898
0.184328	97.5086
0.185392	100.21
0.186463	102.895
0.187539	105.564
0.188622	108.219
0.189711	110.86
0.190806	113.49
0.191907	116.109
0.193015	118.718
0.19413	121.32
0.19525	123.916
0.196378	126.507
0.197511	129.095
0.198651	131.682
0.199798	134.27
0.200952	136.861
0.202112	139.457
0.203279	142.059
0.204452	144.672
0.205633	147.296
0.20682	149.934
0.208014	152.589
0.209215	155.263
0.210422	157.959
0.211637	160.68
0.212859	163.43
0.214088	166.21
0.215324	169.024
0.216567	171.876
0.217817	174.768
0.219075	177.705
0.220339	180.689
0.221611	183.725
0.222891	186.816
0.224177	189.966
0.225472	193.178
0.226773	196.457
0.228082	199.806
0.229399	203.23
0.230724	206.733
0.232055	210.317
0.233395	213.988
0.234743	217.749
0.236098	221.605
0.237461	225.558
0.238832	229.612
0.24021	233.771
0.241597	238.039
0.242992	242.417
0.244395	246.91
0.245806	251.52
0.247225	256.25
0.248652	261.1
0.250087	266.074
0.251531	271.172
0.252983	276.396
0.254444	281.746
0.255913	287.221
0.25739	292.823
0.258876	298.55
0.260371	304.401
0.261874	310.374
0.263385	316.466
0.264906	322.675
0.266435	328.998
0.267973	335.43
0.269521	341.967
0.271076	348.604
0.272641	355.335
0.274215	362.155
0.275798	369.057
0.277391	376.033
0.278992	383.076
0.280603	390.178
0.282223	397.329
0.283852	404.52
0.285491	411.74
0.287139	418.979
0.288796	426.226
0.290464	433.467
0.292141	440.689
0.293827	447.878
0.295523	455.019
0.297229	462.094
0.298945	469.087
0.300671	475.978
0.302407	482.747
0.304153	489.372
0.305909	495.83
0.307675	502.095
0.309451	508.141
0.311237	513.942
0.313034	519.467
0.314841	524.686
0.316659	529.569
0.318487	534.084
0.320326	538.198
0.322175	541.445
0.324035	540.024
0.325906	538.081
0.327787	535.603
0.329679	532.585
0.331583	529.02
0.333497	524.91
0.335422	520.259
0.337359	515.076
0.339306	509.375
0.341265	503.173
0.343235	496.493
0.345217	489.363
0.34721	481.813
0.349214	473.88
0.35123	465.6
0.353258	457.014
0.355297	448.165
0.357348	439.097
0.359411	429.854
0.361486	420.481
0.363573	411.021
0.365672	401.517
0.367783	392.01
0.369906	382.539
0.372042	373.138
0.37419	363.84
0.37635	354.675
0.378523	345.669
0.380708	336.844
0.382906	328.218
0.385116	319.807
0.38734	311.622
0.389576	303.674
0.391825	295.967
0.394087	288.504
0.396362	281.287
0.39865	274.314
0.400951	268.183
0.403266	263.115
0.405594	258.236
0.407936	253.542
0.410291	249.025
0.412659	244.681
0.415042	240.5
0.417438	236.478
0.419848	232.607
0.422272	228.881
0.424709	225.295
0.427161	221.842
0.429627	218.517
0.432108	215.317
0.434602	212.237
0.437111	209.273
0.439635	206.423
0.442173	203.683
0.444725	201.05
0.447293	198.522
0.449875	196.097
0.452472	193.773
0.455084	191.547
0.457712	189.418
0.460354	187.383
0.463012	185.44
0.465685	183.587
0.468373	181.823
0.471077	180.145
0.473796	178.551
0.476532	177.039
0.479283	175.606
0.48205	174.251
0.484833	172.972
0.487632	171.767
0.490447	170.633
0.493278	169.569
0.496126	168.573
0.49899	167.643
0.501871	168.003
0.504768	169.096
0.507682	170.258
0.510613	171.488
0.513561	172.785
0.516526	174.148
0.519508	175.577
0.522507	177.07
0.525523	178.627
0.528557	180.249
0.531608	181.72
0.534677	183.054
0.537764	184.44
0.540869	185.88
0.543991	187.371
0.547132	188.915
0.55029	190.511
0.553467	192.161
0.556662	193.863
0.559876	195.619
0.563108	197.429
0.566359	199.295
0.569629	201.216
0.572917	203.195
0.576225	205.232
0.579551	207.329
0.582897	209.488
0.586262	211.71
0.589647	213.997
0.593051	216.352
0.596474	218.777
0.599918	221.274
0.603381	221.706
0.606865	222.157
0.610368	222.681
0.613892	223.283
0.617436	223.965
0.621	224.732
0.624585	225.588
0.628191	226.538
0.631818	227.585
0.635465	228.735
0.639134	229.992
0.642824	231.361
0.646535	232.847
0.650267	234.455
0.654021	236.188
0.657797	238.052
0.661594	240.05
0.665414	242.183
0.669255	244.454
0.673119	246.863
0.677005	249.407
0.680913	252.083
0.684844	254.884
0.688798	257.798
0.692774	260.812
0.696774	263.905
0.700796	267.053
0.704842	270.225
0.708911	273.385
0.713004	276.487
0.71712	279.484
0.72126	282.317
0.725424	284.928
0.729612	287.251
0.733824	289.222
0.73806	290.777
0.742321	291.857
0.746607	292.412
0.750917	292.403
0.755252	291.802
0.759612	290.602
0.763997	288.809
0.768408	286.448
0.772844	283.561
0.777306	280.203
0.781793	276.441
0.786306	272.347
0.790846	268
0.795411	263.476
0.800003	258.851
0.804622	254.193
0.809267	249.563
0.813939	245.014
0.818638	240.591
0.823364	236.329
0.828117	232.255
0.832898	228.389
0.837706	224.746
0.842543	221.334
0.847407	218.157
0.852299	215.502
0.857219	213.404
0.862168	211.536
0.867145	209.891
0.872151	208.464
0.877186	207.248
0.88225	206.234
0.887344	205.417
0.892466	204.787
0.897619	204.339
0.902801	204.065
0.908013	203.957
0.913255	204.009
0.918527	204.213
0.92383	204.561
0.929163	205.045
0.934527	205.656
0.939922	206.385
0.945348	207.219
0.950806	208.146
0.956295	209.151
0.961816	210.216
0.967368	211.321
0.972953	212.442
0.97857	213.553
0.984219	214.625
0.989901	215.625
0.995616	216.519
1.00136	217.271
1.00714	217.847
1.01296	218.213
1.01881	218.34
1.02469	218.205
1.0306	217.791
1.03655	217.091
1.04254	216.107
1.04856	214.851
1.05461	213.343
1.0607	211.609
1.06682	209.684
1.07298	207.601
1.07917	205.398
1.08541	203.112
1.09167	200.775
1.09797	198.418
1.10431	196.068
1.11069	193.747
1.1171	191.474
1.12355	189.263
1.13003	187.124
1.13656	185.066
1.14312	183.094
1.14972	181.211
1.15636	179.419
1.16303	177.717
1.16975	176.105
1.1765	174.58
1.18329	173.142
1.19012	171.786
1.19699	170.511
1.2039	169.313
1.21085	168.19
1.21784	167.137
1.22488	166.153
1.23195	165.234
1.23906	164.377
1.24621	163.579
1.25341	162.839
1.26064	162.152
1.26792	161.517
1.27524	160.931
1.2826	160.391
1.29001	159.895
1.29745	159.442
1.30494	159.028
1.31248	158.651
1.32005	158.31
1.32768	158.001
1.33534	157.724
1.34305	157.475
1.3508	157.252
1.3586	157.054
1.36644	156.877
1.37433	156.72
1.38227	156.581
1.39025	156.456
1.39827	156.345
1.40634	156.243
1.41446	156.15
1.42263	156.062
1.43084	155.977
1.4391	155.892
1.44741	155.806
1.45577	155.715
1.46417	155.618
1.47262	155.511
1.48113	155.394
1.48968	155.264
1.49828	155.118
1.50693	154.956
1.51563	154.776
1.52438	154.577
1.53318	154.357
1.54203	154.117
1.55093	153.855
1.55988	153.572
1.56889	153.268
1.57794	152.943
1.58705	152.599
1.59622	152.236
1.60543	151.855
1.6147	151.458
1.62402	151.047
1.6334	150.623
1.64283	150.189
1.65231	149.746
1.66185	149.296
1.67144	148.841
1.68109	148.383
1.6908	147.924
1.70056	147.466
1.71038	147.01
1.72025	146.557
1.73018	146.11
1.74017	145.668
1.75022	145.235
1.76032	144.809
1.77048	144.393
1.7807	143.986
1.79098	143.59
1.80132	143.205
1.81172	142.83
1.82218	142.468
1.8327	142.117
1.84328	141.777
1.85392	141.449
1.86463	141.133
1.87539	140.828
1.88622	140.535
1.89711	140.252
1.90806	139.98
1.91907	139.719
1.93015	139.468
1.9413	139.228
1.9525	138.996
1.96378	138.774
1.97511	138.562
1.98651	138.357
1.99798	138.161
2.00952	137.973
2.02112	137.793
2.03279	137.62
2.04452	137.454
2.05633	137.294
2.0682	137.141
2.08014	136.994
2.09215	136.852
2.10422	136.716
2.11637	136.586
2.12859	136.46
2.14088	136.339
2.15324	136.222
2.16567	136.11
2.17817	136.001
2.19075	135.896
2.20339	135.795
2.21611	135.697
2.22891	135.602
2.24177	135.51
2.25472	135.421
2.26773	135.335
2.28082	135.25
2.29399	135.169
2.30724	135.089
2.32055	135.011
2.33395	134.936
2.34743	134.862
2.36098	134.789
2.37461	134.718
2.38832	134.649
2.4021	134.581
2.41597	134.514
2.42992	134.448
2.44395	134.383
2.45806	134.319
2.47225	134.256
2.48652	134.194
2.50087	134.132
2.51531	134.071
2.52983	134.011
2.54444	133.951
2.55913	133.891
2.5739	133.832
2.58876	133.773
2.60371	133.715
2.61874	133.657
2.63385	133.599
2.64906	133.541
2.66435	133.483
2.67973	133.425
2.69521	133.368
2.71076	133.31
2.72641	133.252
2.74215	133.195
2.75798	133.137
2.77391	133.079
2.78992	133.021
2.80603	132.962
2.82223	132.904
2.83852	132.845
2.85491	132.787
2.87139	132.728
2.88796	132.668
2.90464	132.609
2.92141	132.549
2.93827	132.489
2.95523	132.429
2.97229	132.368
2.98945	132.307
3.00671	132.246
3.02407	132.184
3.04153	132.122
3.05909	132.06
3.07675	131.997
3.09451	131.934
3.11237	131.871
3.13034	131.807
3.14841	131.743
3.16659	131.679
3.18487	131.614
3.20326	131.549
3.22175	131.483
3.24035	131.418
3.25906	131.352
3.27787	131.285
3.29679	131.218
3.31583	131.151
3.33497	131.084
3.35422	131.016
3.37359	130.948
3.39306	130.879
3.41265	130.811
3.43235	130.742
3.45217	130.672
3.4721	130.603
3.49214	130.533
3.5123	130.463
3.53258	130.392
3.55297	130.321
3.57348	130.25
3.59411	130.179
3.61486	130.108
3.63573	130.036
3.65672	129.964
3.67783	129.892
3.69906	129.819
3.72042	129.747
3.7419	129.674
3.7635	129.601
3.78523	129.528
3.80708	129.454
3.82906	129.381
3.85116	129.307
3.8734	129.233
3.89576	129.159
3.91825	129.085
3.94087	129.011
3.96362	128.937
3.9865	128.862
4.00951	128.788
4.03266	128.713
4.05594	128.639
4.07936	128.564
4.10291	128.489
4.12659	128.414
4.15042	128.339
4.17438	128.264
4.19848	128.189
4.22272	128.114
4.24709	128.039
4.27161	127.964
4.29627	127.889
4.32108	127.814
4.34602	127.739
4.37111	127.664
4.39635	127.589
4.42173	127.515
4.44725	127.44
4.47293	127.365
4.49875	127.29
4.52472	127.216
4.55084	127.141
4.57712	127.067
4.60354	126.992
4.63012	126.918
4.65685	126.844
4.68373	126.77
4.71077	126.696
4.73796	126.622
4.76532	126.549
4.79283	126.475
4.8205	126.402
4.84833	126.329
4.87632	126.255
4.90447	126.183
4.93278	126.11
4.96126	126.037
4.9899	125.965
5.01871	125.893
5.04768	125.821
5.07682	125.749
5.10613	125.677
5.13561	125.606
5.16526	125.535
5.19508	125.464
5.22507	125.393
5.25523	125.322
5.28557	125.252
5.31608	125.182
5.34677	125.112
5.37764	125.042
5.40869	124.973
5.43991	124.903
5.47132	124.834
5.5029	124.766
5.53467	124.697
5.56662	124.629
5.59876	124.561
5.63108	124.493
5.66359	124.426
5.69629	124.359
5.72917	124.292
5.76225	124.225
5.79551	124.159
5.82897	124.093
5.86262	124.027
5.89647	123.961
5.93051	123.896
5.96474	123.831
5.99918	123.766
6.03381	123.702
6.06865	123.637
6.10368	123.573
6.13892	123.51
6.17436	123.446
6.21	123.383
6.24585	123.321
6.28191	123.258
6.31818	123.196
6.35465	123.134
6.39134	123.072
6.42824	123.011
6.46535	122.95
6.50267	122.889
6.54021	122.829
6.57797	122.768
6.61594	122.709
6.65414	122.649
6.69255	122.59
6.73119	122.531
6.77005	122.472
6.80913	122.413
6.84844	122.355
6.88798	122.297
6.92774	122.24
6.96774	122.183
7.00796	122.126
7.04842	122.069
7.08911	122.013
7.13004	121.956
7.1712	121.901
7.2126	121.845
7.25424	121.79
7.29612	121.735
7.33824	121.68
7.3806	121.626
7.42321	121.572
7.46607	121.518
7.50917	121.464
7.55252	121.411
7.59612	121.358
7.63997	121.305
7.68408	121.253
7.72844	121.201
7.77306	121.149
7.81793	121.097
7.86306	121.046
7.90846	120.995
7.95411	120.944
8.00003	120.894
8.04622	120.843
8.09267	120.793
8.13939	120.744
8.18638	120.694
8.23364	120.645
8.28117	120.596
8.32898	120.548
8.37706	120.499
8.42543	120.451
8.47407	120.403
8.52299	120.356
8.57219	120.309
8.62168	120.262
8.67145	120.215
8.72151	120.168
8.77186	120.122
8.8225	120.076
8.87344	120.03
8.92466	119.985
8.97619	119.94
9.02801	119.895
9.08013	119.85
9.13255	119.806
9.18527	119.761
9.2383	119.717
9.29163	119.674
9.34527	119.63
9.39922	119.587
9.45348	119.544
9.50806	119.501
9.56295	119.459
9.61816	119.416
9.67368	119.374
9.72953	119.333
9.7857	119.291
9.84219	119.25
9.89901	119.209
9.95616	119.168
10.0136	118.501
10.0714	118.468
10.1296	118.435
10.1881	118.402
10.2469	118.369
10.306	118.336
10.3655	118.304
10.4254	118.272
10.4856	118.239
10.5461	118.207
10.607	118.176
10.6682	118.144
10.7298	118.112
10.7917	118.081
10.8541	118.05
10.9167	118.019
10.9797	117.988
11.0431	117.957
11.1069	117.926
11.171	117.896
11.2355	117.865
11.3003	117.835
11.3656	117.805
11.4312	117.775
11.4972	117.745
11.5636	117.716
11.6303	117.686
11.6975	117.657
11.765	117.628
11.8329	117.599
11.9012	117.57
11.9699	117.541
12.039	117.513
12.1085	117.484
12.1784	117.456
12.2488	117.428
12.3195	117.4
12.3906	117.372
12.4621	117.345
12.5341	117.317
12.6064	117.29
12.6792	117.262
12.7524	117.235
12.826	117.208
12.9001	117.182
12.9745	117.155
13.0494	117.129
13.1248	117.102
13.2005	117.076
13.2768	117.05
13.3534	117.024
13.4305	116.998
13.508	116.973
13.586	116.947
13.6644	116.922
13.7433	116.897
13.8227	116.872
13.9025	116.847
13.9827	116.822
14.0634	116.798
14.1446	116.773
14.2263	116.749
14.3084	116.725
14.391	116.701
14.4741	116.677
14.5577	116.653
14.6417	116.63
14.7262	116.606
14.8113	116.583
14.8968	116.56
14.9828	116.537
15.0693	116.514
15.1563	116.491
15.2438	116.469
15.3318	116.447
15.4203	116.424
15.5093	116.402
15.5988	116.38
15.6889	116.358
15.7794	116.337
15.8705	116.315
15.9622	116.294
16.0543	116.273
16.147	116.251
16.2402	116.23
16.334	116.21
16.4283	116.189
16.5231	116.168
16.6185	116.148
16.7144	116.128
16.8109	116.108
16.908	116.088
17.0056	116.068
17.1038	116.048
17.2025	116.029
17.3018	116.009
17.4017	115.99
17.5022	115.971
17.6032	115.952
17.7048	115.933
17.807	115.914
17.9098	115.896
18.0132	115.877
18.1172	115.859
18.2218	115.841
18.327	115.823
18.4328	115.805
18.5392	115.787
18.6463	115.77
18.7539	115.752
18.8622	115.735
18.9711	115.718
19.0806	115.701
19.1907	115.684
19.3015	115.667
19.413	115.651
19.525	115.634
19.6378	115.618
19.7511	115.602
19.8651	115.586
19.9798	115.57
20.0952	115.554
20.2112	115.538
20.3279	115.523
20.4452	115.508
20.5633	115.492
20.682	115.477
20.8014	115.462
20.9215	115.448
21.0422	115.433
21.1637	115.418
21.2859	115.404
21.4088	115.39
21.5324	115.376
21.6567	115.362
21.7817	115.348
21.9075	115.334
22.0339	115.32
22.1611	115.307
22.2891	115.294
22.4177	115.28
22.5472	115.267
22.6773	115.255
22.8082	115.242
22.9399	115.229
23.0724	115.217
23.2055	115.204
23.3395	115.192
23.4743	115.18
23.6098	115.168
23.7461	115.156
23.8832	115.144
24.021	115.133
24.1597	115.121
24.2992	115.11
24.4395	115.099
24.5806	115.088
24.7225	115.077
24.8652	115.066
25.0087	115.056
25.1531	115.045
25.2983	115.035
25.4444	115.024
25.5913	115.014
25.739	115.004
25.8876	114.994
26.0371	114.985
26.1874	114.975
26.3385	114.966
26.4906	114.956
26.6435	114.947
26.7973	114.938
26.9521	114.929
27.1076	114.92
27.2641	114.912
27.4215	114.903
27.5798	114.895
27.7391	114.886
27.8992	114.878
28.0603	114.87
28.2223	114.862
28.3852	114.855
28.5491	114.847
28.7139	114.84
28.8796	114.832
29.0464	114.825
29.2141	114.818
29.3827	114.811
29.5523	114.804
29.7229	114.797
29.8945	114.791
30.0671	114.784
30.2407	114.778
30.4153	114.771
30.5909	114.765
30.7675	114.759
30.9451	114.754
31.1237	114.748
31.3034	114.742
31.4841	114.737
31.6659	114.731
31.8487	114.726
32.0326	114.721
32.2175	114.716
32.4035	114.711
32.5906	114.707
32.7787	114.702
32.9679	114.698
33.1583	114.693
33.3497	114.689
33.5422	114.685
33.7359	114.681
33.9306	114.677
34.1265	114.673
34.3235	114.67
34.5217	114.666
34.721	114.663
34.9214	114.66
35.123	114.657
35.3258	114.654
35.5297	114.651
35.7348	114.648
35.9411	114.646
36.1486	114.643
36.3573	114.641
36.5672	114.639
36.7783	114.636
36.9906	114.634
37.2042	114.633
37.419	114.631
37.635	114.629
37.8523	114.628
38.0708	114.626
38.2906	114.625
38.5116	114.624
38.734	114.623
38.9576	114.622
39.1825	114.621
39.4087	114.621
39.6362	114.62
39.865	114.62
40.0951	114.619
40.3266	114.619
40.5594	114.619
40.7936	114.619
41.0291	114.619
41.2659	114.62
41.5042	114.62
41.7438	114.621
41.9848	114.621
42.2272	114.622
42.4709	114.623
42.7161	114.624
42.9627	114.625
43.2108	114.626
43.4602	114.628
43.7111	114.629
43.9635	114.631
44.2173	114.633
44.4725	114.635
44.7293	114.637
44.9875	114.639
45.2472	114.641
45.5084	114.643
45.7712	114.646
46.0354	114.648
46.3012	114.651
46.5685	114.654
46.8373	114.656
47.1077	114.66
47.3796	114.663
47.6532	114.666
47.9283	114.669
48.205	114.673
48.4833	114.676
48.7632	114.68
49.0447	114.684
49.3278	114.688
49.6126	114.692
49.899	114.696
50.1871	114.7
50.4768	114.705
50.7682	114.709
51.0613	114.714
51.3561	114.719
51.6526	114.724
51.9508	114.729
52.2507	114.734
52.5523	114.739
52.8557	114.744
53.1608	114.75
53.4677	114.755
53.7764	114.761
54.0869	114.767
54.3991	114.772
54.7132	114.778
55.029	114.785
55.3467	114.791
55.6662	114.797
55.9876	114.804
56.3108	114.81
56.6359	114.817
56.9629	114.824
57.2917	114.83
57.6225	114.837
57.9551	114.845
58.2897	114.852
58.6262	114.859
58.9647	114.867
59.3051	114.874
59.6474	114.882
59.9918	114.89
60.3381	114.897
60.6865	114.905
61.0368	114.914
61.3892	114.922
61.7436	114.93
62.1	114.939
62.4585	114.947
62.8191	114.956
63.1818	114.965
63.5465	114.973
63.9134	114.982
64.2824	114.992
64.6535	115.001
65.0267	115.01
65.4021	115.019
65.7797	115.029
66.1594	115.039
66.5414	115.048
66.9255	115.058
67.3119	115.068
67.7005	115.078
68.0913	115.089
68.4844	115.099
68.8798	115.109
69.2774	115.12
69.6774	115.13
70.0796	115.141
70.4842	115.152
70.8911	115.163
71.3004	115.174
71.712	115.185
72.126	115.196
72.5424	115.208
72.9612	115.219
73.3824	115.231
73.806	115.242
74.2321	115.254
74.6607	115.266
75.0917	115.278
75.5252	115.29
75.9612	115.302
76.3997	115.315
76.8408	115.327
77.2844	115.339
77.7306	115.352
78.1793	115.365
78.6306	115.378
79.0846	115.391
79.5411	115.404
80.0003	115.417
80.4622	115.43
80.9267	115.443
81.3939	115.457
81.8638	115.47
82.3364	115.484
82.8117	115.498
83.2898	115.512
83.7706	115.526
84.2543	115.54
84.7407	115.554
85.2299	115.568
85.7219	115.583
86.2168	115.597
86.7145	115.612
87.2151	115.626
87.7186	115.641
88.225	115.656
88.7344	115.671
89.2466	115.686
89.7619	115.701
90.2801	115.717
90.8013	115.732
91.3255	115.748
91.8527	115.763
92.383	115.779
92.9163	115.795
93.4527	115.811
93.9922	115.827
94.5348	115.843
95.0806	115.859
95.6295	115.875
96.1816	115.892
96.7368	115.908
97.2953	115.925
97.857	115.942
98.4219	115.958
98.9901	115.975
99.5616	115.992
100.136	116.009
100.714	116.027
101.296	116.044
101.881	116.061
102.469	116.079
103.06	116.096
103.655	116.114
104.254	116.132
104.856	116.15
105.461	116.168
106.07	116.186
106.682	116.204
107.298	116.222
107.917	116.241
108.541	116.259
109.167	116.278
109.797	116.297
110.431	116.315
111.069	116.334
111.71	116.353
112.355	116.372
113.003	116.392
113.656	116.411
114.312	116.43
114.972	116.45
115.636	116.469
116.303	116.489
116.975	116.509
117.65	116.529
118.329	116.548
119.012	116.569
119.699	116.589
120.39	116.609
121.085	116.629
121.784	116.65
122.488	116.67
123.195	116.691
123.906	116.712
124.621	116.732
125.341	116.753
126.064	116.774
126.792	116.795
127.524	116.817
128.26	116.838
129.001	116.859
129.745	116.881
130.494	116.902
131.248	116.924
132.005	116.946
132.768	116.967
133.534	116.989
134.305	117.011
135.08	117.034
135.86	117.056
136.644	117.078
137.433	117.101
138.227	117.123
139.025	117.146
139.827	117.168
140.634	117.191
141.446	117.214
142.263	117.237
143.084	117.26
143.91	117.283
144.741	117.306
145.577	117.33
146.417	117.353
147.262	117.377
148.113	117.4
148.968	117.424
149.828	117.448
150.693	117.472
151.563	117.496
152.438	117.52
153.318	117.544
154.203	117.568
155.093	117.593
155.988	117.617
156.889	117.642
157.794	117.666
158.705	117.691
159.622	117.716
160.543	117.741
161.47	117.766
162.402	117.791
163.34	117.816
164.283	117.841
165.231	117.867
166.185	117.892
167.144	117.918
168.109	117.943
169.08	117.969
170.056	117.995
171.038	118.021
172.025	118.047
173.018	118.073
174.017	118.099
175.022	118.125
176.032	118.151
177.048	118.178
178.07	118.204
179.098	118.231
180.132	118.258
181.172	118.284
182.218	118.311
183.27	118.338
184.328	118.365
185.392	118.392
186.463	118.42
187.539	118.447
188.622	118.474
189.711	118.502
190.806	118.529
191.907	118.557
193.015	118.585
194.13	118.613
195.25	118.641
196.378	118.669
197.511	118.697
198.651	118.725
199.798	118.753
200.952	118.781
202.112	118.81
203.279	118.838
204.452	118.867
205.633	118.896
206.82	118.925
208.014	118.953
209.215	118.982
210.422	119.011
211.637	119.041
212.859	119.07
214.088	119.099
215.324	119.129
216.567	119.158
217.817	119.188
219.075	119.217
220.339	119.247
221.611	119.277
222.891	119.307
224.177	119.337
225.472	119.367
226.773	119.397
228.082	119.427
229.399	119.458
230.724	119.488
232.055	119.519
233.395	119.549
234.743	119.58
236.098	119.611
237.461	119.641
238.832	119.672
240.21	119.703
241.597	119.734
242.992	119.766
244.395	119.797
245.806	119.828
247.225	119.86
248.652	119.891
250.087	119.923
251.531	119.955
252.983	119.986
254.444	120.018
255.913	120.05
257.39	120.082
258.876	120.114
260.371	120.146
261.874	120.179
263.385	120.211
264.906	120.244
266.435	120.276
267.973	120.309
269.521	120.341
271.076	120.374
272.641	120.407
274.215	120.44
275.798	120.473
277.391	120.506
278.992	120.539
280.603	120.572
282.223	120.606
283.852	120.639
285.491	120.673
287.139	120.706
288.796	120.74
290.464	120.774
292.141	120.808
293.827	120.841
295.523	120.875
297.229	120.91
298.945	120.944
300.671	120.978
302.407	121.012
304.153	121.047
305.909	121.081
307.675	121.116
309.451	121.15
311.237	121.185
313.034	121.22
314.841	121.255
316.659	121.29
318.487	121.325
320.326	121.36
322.175	121.395
324.035	121.43
325.906	121.466
327.787	121.501
329.679	121.537
331.583	121.572
333.497	121.608
335.422	121.644
337.359	121.68
339.306	121.716
341.265	121.752
343.235	121.788
345.217	121.824
347.21	121.86
349.214	121.896
351.23	121.933
353.258	121.969
355.297	122.006
357.348	122.043
359.411	122.079
361.486	122.116
363.573	122.153
365.672	122.19
367.783	122.227
369.906	122.264
372.042	122.301
374.19	122.339
376.35	122.376
378.523	122.413
380.708	122.451
382.906	122.488
385.116	122.526
387.34	122.564
389.576	122.602
391.825	122.64
394.087	122.678
396.362	122.716
398.65	122.754
400.951	122.792
403.266	122.83
405.594	122.869
407.936	122.907
410.291	122.946
412.659	122.984
415.042	123.023
417.438	123.062
419.848	123.1
422.272	123.139
424.709	123.178
427.161	123.217
429.627	123.256
432.108	123.296
434.602	123.335
437.111	123.374
439.635	123.414
442.173	123.453
444.725	123.493
447.293	123.533
449.875	123.572
452.472	123.612
455.084	123.652
457.712	123.692
460.354	123.732
463.012	123.772
465.685	123.812
468.373	123.853
471.077	123.893
473.796	123.933
476.532	123.974
479.283	124.014
482.05	124.055
484.833	124.096
487.632	124.137
490.447	124.178
493.278	124.218
496.126	124.26
498.99	124.301
501.871	124.342
504.768	124.383
507.682	124.424
510.613	124.466
513.561	124.507
516.526	124.549
519.508	124.59
522.507	124.632
525.523	124.674
528.557	124.716
531.608	124.758
534.677	124.8
537.764	124.842
540.869	124.884
543.991	124.926
547.132	124.968
550.29	125.011
553.467	125.053
556.662	125.096
559.876	125.138
563.108	125.181
566.359	125.224
569.629	125.267
572.917	125.31
576.225	125.353
579.551	125.396
582.897	125.439
586.262	125.482
589.647	125.525
593.051	125.568
596.474	125.612
599.918	125.655
603.381	125.699
606.865	125.742
610.368	125.786
613.892	125.83
617.436	125.874
621	125.918
624.585	125.962
628.191	126.006
631.818	126.05
635.465	126.094
639.134	126.138
642.824	126.183
646.535	126.227
650.267	126.272
654.021	126.316
657.797	126.361
661.594	126.406
665.414	126.45
669.255	126.495
673.119	126.54
677.005	126.585
680.913	126.63
684.844	126.675
688.798	126.721
692.774	126.766
696.774	126.811
700.796	126.857
704.842	126.902
708.911	126.948
713.004	126.993
717.12	127.039
721.26	127.085
725.424	127.131
729.612	127.177
733.824	127.223
738.06	127.269
742.321	127.315
746.607	127.361
750.917	127.407
755.252	127.454
759.612	127.5
763.997	127.547
768.408	127.593
772.844	127.64
777.306	127.687
781.793	127.733
786.306	127.78
790.846	127.827
795.411	127.874
800.003	127.921
804.622	127.968
809.267	128.016
813.939	128.063
818.638	128.11
823.364	128.158
828.117	128.205
832.898	128.253
837.706	128.3
842.543	128.348
847.407	128.396
852.299	128.444
857.219	128.492
862.168	128.54
867.145	128.588
872.151	128.636
877.186	128.684
882.25	128.732
887.344	128.781
892.466	128.829
897.619	128.877
902.801	128.926
908.013	128.975
913.255	129.023
918.527	129.072
923.83	129.121
929.163	129.17
934.527	129.219
939.922	129.268
945.348	129.317
950.806	129.366
956.295	129.415
961.816	129.465
967.368	129.514
972.953	129.563
978.57	129.613
984.219	129.662
989.901	129.712
995.616	129.762
1001.36	129.812
1007.14	129.861
1012.96	129.911
1018.81	129.961
1024.69	130.011
1030.6	130.062
1036.55	130.112
1042.54	130.162
1048.56	130.212
1054.61	130.263
1060.7	130.313
1066.82	130.364
1072.98	130.414
1079.17	130.465
1085.41	130.516
1091.67	130.567
1097.97	130.617
1104.31	130.668
1110.69	130.719
1117.1	130.771
1123.55	130.822
1130.03	130.873
1136.56	130.924
1143.12	130.976
1149.72	131.027
1156.36	131.078
1163.03	131.13
1169.75	131.182
1176.5	131.233
1183.29	131.285
1190.12	131.337
1196.99	131.389
1203.9	131.441
1210.85	131.493
1217.84	131.545
1224.88	131.597
1231.95	131.649
1239.06	131.702
1246.21	131.754
1253.41	131.806
1260.64	131.859
1267.92	131.911
1275.24	131.964
1282.6	132.017
1290.01	132.07
1297.45	132.122
1304.94	132.175
1312.48	132.228
1320.05	132.281
1327.68	132.334
1335.34	132.388
1343.05	132.441
1350.8	132.494
1358.6	132.547
1366.44	132.601
1374.33	132.654
1382.27	132.708
1390.25	132.762
1398.27	132.815
1406.34	132.869
1414.46	132.923
1422.63	132.977
1430.84	133.031
1439.1	133.085
1447.41	133.139
1455.77	133.193
1464.17	133.247
1472.62	133.302
1481.13	133.356
1489.68	133.41
1498.28	133.465
1506.93	133.519
1515.63	133.574
1524.38	133.629
1533.18	133.684
1542.03	133.738
1550.93	133.793
1559.88	133.848
1568.89	133.903
1577.94	133.958
1587.05	134.014
1596.22	134.069
1605.43	134.124
1614.7	134.179
1624.02	134.235
1633.4	134.29
1642.83	134.346
1652.31	134.401
1661.85	134.457
1671.44	134.513
1681.09	134.569
1690.8	134.625
1700.56	134.68
1710.38	134.736
1720.25	134.793
1730.18	134.849
1740.17	134.905
1750.22	134.961
1760.32	135.018
1770.48	135.074
1780.7	135.13
1790.98	135.187
1801.32	135.243
1811.72	135.3
1822.18	135.357
1832.7	135.414
1843.28	135.47
1853.92	135.527
1864.63	135.584
1875.39	135.641
1886.22	135.699
1897.11	135.756
1908.06	135.813
1919.07	135.87
1930.15	135.928
1941.3	135.985
1952.5	136.043
1963.78	136.1
1975.11	136.158
1986.51	136.215
1997.98	136.273
2009.52	136.331
2021.12	136.389
2032.79	136.447
2044.52	136.505
2056.33	136.563
2068.2	136.621
2080.14	136.679
2092.15	136.738
2104.22	136.796
2116.37	136.854
2128.59	136.913
2140.88	136.971
2153.24	137.03
2165.67	137.089
2178.17	137.147
2190.75	137.206
2203.39	137.265
2216.11	137.324
2228.91	137.383
2241.77	137.442
2254.72	137.501
2267.73	137.56
2280.82	137.619
2293.99	137.679
2307.24	137.738
2320.55	137.797
2333.95	137.857
2347.43	137.916
2360.98	137.976
2374.61	138.036
2388.32	138.095
2402.1	138.155
2415.97	138.215
2429.92	138.275
2443.95	138.335
2458.06	138.395
2472.25	138.455
2486.52	138.515
2500.87	138.576
2515.31	138.636
2529.83	138.696
2544.44	138.757
2559.13	138.817
2573.9	138.878
2588.76	138.938
2603.71	138.999
2618.74	139.06
2633.85	139.121
2649.06	139.182
2664.35	139.242
2679.73	139.303
2695.21	139.365
2710.76	139.426
2726.41	139.487
2742.15	139.548
2757.98	139.609
2773.91	139.671
2789.92	139.732
2806.03	139.794
2822.23	139.855
2838.52	139.917
2854.91	139.979
2871.39	140.04
2887.96	140.102
2904.64	140.164
2921.41	140.226
2938.27	140.288
2955.23	140.35
2972.29	140.412
2989.45	140.475
3006.71	140.537
3024.07	140.599
3041.53	140.661
3059.09	140.724
3076.75	140.786
3094.51	140.849
3112.37	140.912
3130.34	140.974
3148.41	141.037
3166.59	141.1
3184.87	141.163
3203.26	141.226
3221.75	141.289
3240.35	141.352
3259.06	141.415
3277.87	141.478
3296.79	141.541
3315.83	141.605
3334.97	141.668
3354.22	141.732
3373.59	141.795
3393.06	141.859
3412.65	141.922
3432.35	141.986
3452.17	142.05
3472.1	142.114
3492.14	142.177
3512.3	142.241
3532.58	142.305
3552.97	142.369
3573.48	142.434
3594.11	142.498
3614.86	142.562
3635.73	142.626
3656.72	142.691
3677.83	142.755
3699.06	142.82
3720.42	142.884
3741.9	142.949
3763.5	143.014
3785.23	143.078
3807.08	143.143
3829.06	143.208
3851.16	143.273
3873.4	143.338
3895.76	143.403
3918.25	143.468
3940.87	143.533
3963.62	143.599
3986.5	143.664
4009.51	143.729
4032.66	143.795
4055.94	143.86
4079.36	143.926
4102.91	143.991
4126.59	144.057
4150.42	144.123
4174.38	144.188
4198.48	144.254
4222.72	144.32
4247.09	144.386
4271.61	144.452
4296.27	144.518
4321.08	144.585
4346.02	144.651
4371.11	144.717
4396.35	144.783
4421.73	144.85
4447.25	144.916
4472.93	144.983
4498.75	145.049
4524.72	145.116
4550.84	145.183
4577.12	145.25
4603.54	145.316
4630.12	145.383
4656.85	145.45
4683.73	145.517
4710.77	145.584
4737.96	145.652
4765.32	145.719
4792.83	145.786
4820.5	145.853
4848.33	145.921
4876.32	145.988
4904.47	146.056
4932.78	146.123
4961.26	146.191
4989.9	146.259
5018.71	146.326
5047.68	146.394
5076.82	146.462
5106.13	146.53
5135.61	146.598
5165.26	146.666
5195.08	146.734
5225.07	146.802
5255.23	146.871
5285.57	146.939
5316.08	147.007
5346.77	147.076
5377.64	147.144
5408.69	147.213
5439.91	147.281
5471.32	147.35
5502.9	147.419
5534.67	147.488
5566.62	147.556
5598.76	147.625
5631.08	147.694
5663.59	147.763
5696.29	147.832
5729.17	147.902
5762.25	147.971
5795.51	148.04
5828.97	148.109
5862.62	148.179
5896.47	148.248
5930.51	148.318
5964.74	148.387
5999.18	148.457
6033.81	148.527
6068.65	148.597
6103.68	148.666
6138.92	148.736
6174.36	148.806
6210	148.876
6245.85	148.946
6281.91	149.016
6318.18	149.087
6354.65	149.157
6391.34	149.227
6428.24	149.298
6465.35	149.368
6502.67	149.438
6540.21	149.509
6577.97	149.58
6615.94	149.65
6654.14	149.721
6692.55	149.792
6731.19	149.863
6770.05	149.934
6809.13	150.005
6848.44	150.076
6887.98	150.147
6927.74	150.218
6967.74	150.289
7007.96	150.36
7048.42	150.432
7089.11	150.503
7130.04	150.575
7171.2	150.646
7212.6	150.718
7254.24	150.789
7296.12	150.861
7338.24	150.933
7380.6	151.005
7423.21	151.076
7466.07	151.148
7509.17	151.22
7552.52	151.292
7596.12	151.365
7639.97	151.437
7684.08	151.509
7728.44	151.581
7773.06	151.654
7817.93	151.726
7863.06	151.799
7908.46	151.871
7954.11	151.944
8000.03	152.016
8046.22	152.089
8092.67	152.162
8139.39	152.235
8186.38	152.308
8233.64	152.381
8281.17	152.454
8328.98	152.527
8377.06	152.6
8425.43	152.673
8474.07	152.746
8522.99	152.82
8572.19	152.893
8621.68	152.966
8671.45	153.04
8721.51	153.114
8771.86	153.187
8822.5	153.261
8873.44	153.335
8924.66	153.408
8976.19	153.482
9028.01	153.556
9080.13	153.63
9132.55	153.704
9185.27	153.778
9238.3	153.852
9291.63	153.927
9345.27	154.001
9399.22	154.075
9453.48	154.15
9508.06	154.224
9562.95	154.299
9618.16	154.373
9673.68	154.448
9729.53	154.523
9785.7	154.597
9842.19	154.672
9899.01	154.747
9956.16	154.822
10013.6	154.897
10071.4	154.972
10129.6	155.047
10188.1	155.123
10246.9	155.198
10306	155.273
10365.5	155.348
10425.4	155.424
10485.6	155.499
10546.1	155.575
10607	155.65
10668.2	155.726
10729.8	155.802
10791.7	155.878
10854.1	155.954
10916.7	156.029
10979.7	156.105
11043.1	156.181
11106.9	156.258
11171	156.334
11235.5	156.41
11300.3	156.486
11365.6	156.562
11431.2	156.639
11497.2	156.715
11563.6	156.792
11630.3	156.868
11697.5	156.945
11765	157.022
11832.9	157.098
11901.2	157.175
11969.9	157.252
12039	157.329
12108.5	157.406
12178.4	157.483
12248.8	157.56
12319.5	157.637
12390.6	157.715
12462.1	157.792
12534.1	157.869
12606.4	157.947
12679.2	158.024
12752.4	158.102
12826	158.179
12900.1	158.257
12974.5	158.334
13049.4	158.412
13124.8	158.49
13200.5	158.568
13276.8	158.646
13353.4	158.724
13430.5	158.802
13508	158.88
13586	158.958
13664.4	159.036
13743.3	159.115
13822.7	159.193
13902.5	159.272
13982.7	159.35
14063.4	159.429
14144.6	159.507
14226.3	159.586
14308.4	159.665
14391	159.743
14474.1	159.822
14557.7	159.901
14641.7	159.98
14726.2	160.059
14811.3	160.138
14896.8	160.217
14982.8	160.296
15069.3	160.376
15156.3	160.455
15243.8	160.534
15331.8	160.614
15420.3	160.693
15509.3	160.773
15598.8	160.853
15688.9	160.932
15779.4	161.012
15870.5	161.092
15962.2	161.172
16054.3	161.252
16147	161.331
16240.2	161.412
16334	161.492
16428.3	161.572
16523.1	161.652
16618.5	161.732
16714.4	161.813
16810.9	161.893
16908	161.973
17005.6	162.054
17103.8	162.135
17202.5	162.215
17301.8	162.296
17401.7	162.377
17502.2	162.457
17603.2	162.538
17704.8	162.619
17807	162.7
17909.8	162.781
18013.2	162.862
18117.2	162.944
18221.8	163.025
18327	163.106
18432.8	163.187
18539.2	163.269
18646.3	163.35
18753.9	163.432
18862.2	163.513
18971.1	163.595
19080.6	163.677
19190.7	163.759
19301.5	163.84
19413	163.922
19525	164.004
19637.8	164.086
19751.1	164.168
19865.1	164.251
19979.8	164.333
20095.2	164.415
20211.2	164.497
20327.9	164.58
20445.2	164.662
20563.3	164.745
20682	164.827
20801.4	164.91
20921.5	164.992
21042.2	165.075
21163.7	165.158
21285.9	165.241
21408.8	165.324
21532.4	165.407
21656.7	165.49
21781.7	165.573
21907.5	165.656
22033.9	165.739
22161.1	165.822
22289.1	165.906
22417.7	165.989
22547.2	166.073
22677.3	166.156
22808.2	166.24
22939.9	166.323
23072.4	166.407
23205.5	166.491
23339.5	166.575
23474.3	166.658
23609.8	166.742
23746.1	166.826
23883.2	166.91
24021	166.995
24159.7	167.079
24299.2	167.163
24439.5	167.247
24580.6	167.332
24722.5	167.416
24865.2	167.5
25008.7	167.585
25153.1	167.67
25298.3	167.754
25444.4	167.839
25591.3	167.924
25739	168.009
25887.6	168.093
26037.1	168.178
26187.4	168.263
26338.5	168.348
26490.6	168.434
26643.5	168.519
26797.3	168.604
26952.1	168.689
27107.6	168.775
27264.1	168.86
27421.5	168.946
27579.8	169.031
27739.1	169.117
27899.2	169.203
28060.3	169.288
28222.3	169.374
28385.2	169.46
28549.1	169.546
28713.9	169.632
28879.6	169.718
29046.4	169.804
29214.1	169.89
29382.7	169.976
29552.3	170.063
29722.9	170.149
29894.5	170.235
30067.1	170.322
30240.7	170.408
30415.3	170.495
30590.9	170.582
30767.5	170.668
30945.1	170.755
31123.7	170.842
31303.4	170.929
31484.1	171.016
31665.9	171.103
31848.7	171.19
32032.6	171.277
32217.5	171.364
32403.5	171.451
32590.6	171.539
32778.7	171.626
32967.9	171.713
33158.3	171.801
33349.7	171.888
33542.2	171.976
33735.9	172.064
33930.6	172.151
34126.5	172.239
34323.5	172.327
34521.7	172.415
34721	172.503
34921.4	172.591
35123	172.679
35325.8	172.767
35529.7	172.855
35734.8	172.944
35941.1	173.032
36148.6	173.12
36357.3	173.209
36567.2	173.297
36778.3	173.386
36990.6	173.475
37204.2	173.563
37419	173.652
37635	173.741
37852.3	173.83
38070.8	173.919
38290.6	174.008
38511.6	174.097
38734	174.186
38957.6	174.275
39182.5	174.364
39408.7	174.454
39636.2	174.543
39865	174.632
40095.1	174.722
40326.6	174.811
40559.4	174.901
40793.6	174.991
41029.1	175.08
41265.9	175.17
41504.2	175.26
41743.8	175.35
41984.8	175.44
42227.2	175.53
42470.9	175.62
42716.1	175.71
42962.7	175.8
43210.8	175.891
43460.2	175.981
43711.1	176.071
43963.5	176.162
44217.3	176.252
44472.5	176.343
44729.3	176.434
44987.5	176.524
45247.2	176.615
45508.4	176.706
45771.2	176.797
46035.4	176.888
46301.2	176.979
46568.5	177.07
46837.3	177.161
47107.7	177.252
47379.6	177.343
47653.2	177.435
47928.3	177.526
48205	177.618
48483.3	177.709
48763.2	177.801
49044.7	177.892
49327.8	177.984
49612.6	178.076
49899	178.167
50187.1	178.259
50476.8	178.351
50768.2	178.443
51061.3	178.535
51356.1	178.627
51652.6	178.72
51950.8	178.812
52250.7	178.904
52552.3	178.996
52855.7	179.089
53160.8	179.181
53467.7	179.274
53776.4	179.366
54086.9	179.459
54399.1	179.552
54713.2	179.645
55029	179.737
55346.7	179.83
55666.2	179.923
55987.6	180.016
56310.8	180.109
56635.9	180.203
56962.9	180.296
57291.7	180.389
57622.5	180.482
57955.1	180.576
58289.7	180.669
58626.2	180.763
58964.7	180.856
59305.1	180.95
59647.4	181.044
59991.8	181.137
60338.1	181.231
60686.5	181.325
61036.8	181.419
61389.2	181.513
61743.6	181.607
62100	181.701
62458.5	181.796
62819.1	181.89
63181.8	181.984
63546.5	182.078
63913.4	182.173
64282.4	182.267
64653.5	182.362
65026.7	182.457
65402.1	182.551
65779.7	182.646
66159.4	182.741
66541.4	182.836
66925.5	182.931
67311.9	183.026
67700.5	183.121
68091.3	183.216
68484.4	183.311
68879.8	183.406
69277.4	183.502
69677.4	183.597
70079.6	183.692
70484.2	183.788
70891.1	183.884
71300.4	183.979
71712	184.075
72126	184.171
72542.4	184.266
72961.2	184.362
73382.4	184.458
73806	184.554
74232.1	184.65
74660.7	184.746
75091.7	184.843
75525.2	184.939
75961.2	185.035
76399.7	185.131
76840.8	185.228
77284.4	185.324
77730.6	185.421
78179.3	185.518
78630.6	185.614
79084.6	185.711
79541.1	185.808
80000.3	185.905
80462.2	186.002
80926.7	186.098
81393.9	186.196
81863.8	186.293
82336.4	186.39
82811.7	186.487
83289.8	186.584
83770.6	186.682
84254.3	186.779
84740.7	186.877
85229.9	186.974
85721.9	187.072
86216.8	187.169
86714.5	187.267
87215.1	187.365
87718.6	187.463
88225	187.561
88734.4	187.659
89246.6	187.757
89761.9	187.855
90280.1	187.953
90801.3	188.051
91325.5	188.15
91852.7	188.248
92383	188.346
92916.3	188.445
93452.7	188.544
93992.2	188.642
94534.8	188.741
95080.6	188.84
95629.5	188.938
96181.6	189.037
96736.8	189.136
97295.3	189.235
97857	189.334
98421.9	189.433
98990.1	189.532
99561.6	189.632
100136	189.731
100714	189.83
101296	189.93
101881	190.029
102469	190.129
103060	190.229
103655	190.328
104254	190.428
104856	190.528
105461	190.628
106070	190.728
106682	190.828
107298	190.928
107917	191.028
108541	191.128
109167	191.228
109797	191.329
110431	191.429
111069	191.529
111710	191.63
112355	191.73
113003	191.831
113656	191.932
114312	192.032
114972	192.133
115636	192.234
116303	192.335
116975	192.436
117650	192.537
118329	192.638
119012	192.74
119699	192.841
120390	192.942
121085	193.044
121784	193.145
122488	193.247
123195	193.348
123906	193.45
124621	193.551
125341	193.653
126064	193.755
126792	193.857
127524	193.959
128260	194.061
129001	194.163
129745	194.265
130494	194.367
131248	194.47
132005	194.572
132768	194.675
133534	194.777
134305	194.88
135080	194.982
135860	195.085
136644	195.188
137433	195.29
138227	195.393
139025	195.496
139827	195.599
140634	195.702
141446	195.805
142263	195.908
143084	196.012
143910	196.115
144741	196.218
145577	196.322
146417	196.425
147262	196.529
148113	196.633
148968	196.736
149828	196.84
150693	196.944
151563	197.048
152438	197.152
153318	197.256
154203	197.36
155093	197.464
155988	197.568
156889	197.672
157794	197.777
158705	197.881
159622	197.986
160543	198.09
161470	198.195
162402	198.299
163340	198.404
164283	198.509
165231	198.614
166185	198.719
167144	198.824
168109	198.929
169080	199.034
170056	199.139
171038	199.244
172025	199.35
173018	199.455
174017	199.56
175022	199.666
176032	199.771
177048	199.877
178070	199.983
179098	200.089
180132	200.194
181172	200.3
182218	200.406
183270	200.512
184328	200.618
185392	200.724
186463	200.831
187539	200.937
188622	201.043
189711	201.15
190806	201.256
191907	201.363
193015	201.469
194130	201.576
195250	201.683
196378	201.79
197511	201.896
198651	202.003
199798	202.11
200952	202.217
202112	202.325
203279	202.432
204452	202.539
205633	202.646
206820	202.754
208014	202.861
209215	202.969
210422	203.076
211637	203.184
212859	203.292
214088	203.399
215324	203.507
216567	203.615
217817	203.723
219075	203.831
220339	203.939
221611	204.048
222891	204.156
224177	204.264
225472	204.373
226773	204.481
228082	204.589
229399	204.698
230724	204.807
232055	204.915
233395	205.024
234743	205.133
236098	205.242
237461	205.351
238832	205.46
240210	205.569
241597	205.678
242992	205.787
244395	205.897
245806	206.006
247225	206.116
248652	206.225
250087	206.335
251531	206.444
252983	206.554
254444	206.664
255913	206.774
257390	206.883
258876	206.993
260371	207.103
261874	207.214
263385	207.324
264906	207.434
266435	207.544
267973	207.655
269521	207.765
271076	207.875
272641	207.986
274215	208.097
275798	208.207
277391	208.318
278992	208.429
280603	208.54
282223	208.651
283852	208.762
285491	208.873
287139	208.984
288796	209.095
290464	209.207
292141	209.318
293827	209.429
295523	209.541
297229	209.653
298945	209.764
300671	209.876
302407	209.988
304153	210.099
305909	210.211
307675	210.323
309451	210.435
311237	210.547
313034	210.66
314841	210.772
316659	210.884
318487	210.997
320326	211.109
322175	211.221
324035	211.334
325906	211.447
327787	211.559
329679	211.672
331583	211.785
333497	211.898
335422	212.011
337359	212.124
339306	212.237
341265	212.35
343235	212.463
345217	212.577
347210	212.69
349214	212.804
351230	212.917
353258	213.031
355297	213.144
357348	213.258
359411	213.372
361486	213.486
363573	213.6
365672	213.714
367783	213.828
369906	213.942
372042	214.056
374190	214.17
376350	214.285
378523	214.399
380708	214.514
382906	214.628
385116	214.743
387340	214.857
389576	214.972
391825	215.087
394087	215.202
396362	215.317
398650	215.432
400951	215.547
403266	215.662
405594	215.777
407936	215.892
410291	216.008
412659	216.123
415042	216.239
417438	216.354
419848	216.47
422272	216.586
424709	216.701
427161	216.817
429627	216.933
432108	217.049
434602	217.165
437111	217.281
439635	217.397
442173	217.514
444725	217.63
447293	217.746
449875	217.863
452472	217.979
455084	218.096
457712	218.213
460354	218.329
463012	218.446
465685	218.563
468373	218.68
471077	218.797
473796	218.914
476532	219.031
479283	219.148
482050	219.266
484833	219.383
487632	219.501
490447	219.618
493278	219.736
496126	219.853
498990	219.971
501871	220.089
504768	220.207
507682	220.324
510613	220.442
513561	220.56
516526	220.679
519508	220.797
522507	220.915
525523	221.033
528557	221.152
531608	221.27
534677	221.389
537764	221.507
540869	221.626
543991	221.745
547132	221.864
550290	221.982
553467	222.101
556662	222.22
559876	222.34
563108	222.459
566359	222.578
569629	222.697
572917	222.817
576225	222.936
579551	223.056
582897	223.175
586262	223.295
589647	223.414
593051	223.534
596474	223.654
599918	223.774
603381	223.894
606865	224.014
610368	224.134
613892	224.255
617436	224.375
621000	224.495
624585	224.616
628191	224.736
631818	224.857
635465	224.977
639134	225.098
642824	225.219
646535	225.34
650267	225.461
654021	225.582
657797	225.703
661594	225.824
665414	225.945
669255	226.066
673119	226.188
677005	226.309
680913	226.43
684844	226.552
688798	226.674
692774	226.795
696774	226.917
700796	227.039
704842	227.161
708911	227.283
713004	227.405
717120	227.527
721260	227.649
725424	227.772
729612	227.894
733824	228.016
738060	228.139
742321	228.261
746607	228.384
750917	228.507
755252	228.629
759612	228.752
763997	228.875
768408	228.998
772844	229.121
777306	229.244
781793	229.368
786306	229.491
790846	229.614
795411	229.738
800003	229.861
804622	229.985
809267	230.108
813939	230.232
818638	230.356
823364	230.48
828117	230.604
832898	230.728
837706	230.852
842543	230.976
847407	231.1
852299	231.224
857219	231.349
862168	231.473
867145	231.597
872151	231.722
877186	231.847
882250	231.971
887344	232.096
892466	232.221
897619	232.346
902801	232.471
908013	232.596
913255	232.721
918527	232.846
923830	232.972
929163	233.097
934527	233.222
939922	233.348
945348	233.474
950806	233.599
956295	233.725
961816	233.851
967368	233.977
972953	234.103
978570	234.229
984219	234.355
989901	234.481
995616	234.607
1.00136e+06	234.733
1.00714e+06	234.86
1.01296e+06	234.986
1.01881e+06	235.113
1.02469e+06	235.239
1.0306e+06	235.366
1.03655e+06	235.493
1.04254e+06	235.62
1.04856e+06	235.747
1.05461e+06	235.873
1.0607e+06	236.001
1.06682e+06	236.128
1.07298e+06	236.255
1.07917e+06	236.382
1.08541e+06	236.509
1.09167e+06	236.637
1.09797e+06	236.764
1.10431e+06	236.892
1.11069e+06	237.02
1.1171e+06	237.147
1.12355e+06	237.275
1.13003e+06	237.403
1.13656e+06	237.531
1.14312e+06	237.659
1.14972e+06	237.787
1.15636e+06	237.915
1.16303e+06	238.043
1.16975e+06	238.172
1.1765e+06	238.3
1.18329e+06	238.428
1.19012e+06	238.557
1.19699e+06	238.685
1.2039e+06	238.814
1.21085e+06	238.943
1.21784e+06	239.072
1.22488e+06	239.201
1.23195e+06	239.329
1.23906e+06	239.459
1.24621e+06	239.588
1.25341e+06	239.717
1.26064e+06	239.846
1.26792e+06	239.975
1.27524e+06	240.105
1.2826e+06	240.234
1.29001e+06	240.364
1.29745e+06	240.493
1.30494e+06	240.623
1.31248e+06	240.753
1.32005e+06	240.883
1.32768e+06	241.013
1.33534e+06	241.143
1.34305e+06	241.273
1.3508e+06	241.403
1.3586e+06	241.533
1.36644e+06	241.664
1.37433e+06	241.794
1.38227e+06	241.924
1.39025e+06	242.055
1.39827e+06	242.185
1.40634e+06	242.316
1.41446e+06	242.447
1.42263e+06	242.578
1.43084e+06	242.709
1.4391e+06	242.84
1.44741e+06	242.971
1.45577e+06	243.102
1.46417e+06	243.233
1.47262e+06	243.364
1.48113e+06	243.496
1.48968e+06	243.627
1.49828e+06	243.759
1.50693e+06	243.89
1.51563e+06	244.022
1.52438e+06	244.154
1.53318e+06	244.285
1.54203e+06	244.417
1.55093e+06	244.549
1.55988e+06	244.681
1.56889e+06	244.813
1.57794e+06	244.945
1.58705e+06	245.078
1.59622e+06	245.21
1.60543e+06	245.342
1.6147e+06	245.475
1.62402e+06	245.608
1.6334e+06	245.74
1.64283e+06	245.873
1.65231e+06	246.006
1.66185e+06	246.139
1.67144e+06	246.271
1.68109e+06	246.404
1.6908e+06	246.538
1.70056e+06	246.671
1.71038e+06	246.804
1.72025e+06	246.937
1.73018e+06	247.071
1.74017e+06	247.204
1.75022e+06	247.338
1.76032e+06	247.471
1.77048e+06	247.605
1.7807e+06	247.739
1.79098e+06	247.873
1.80132e+06	248.007
1.81172e+06	248.141
1.82218e+06	248.275
1.8327e+06	248.409
1.84328e+06	248.543
1.85392e+06	248.677
1.86463e+06	248.812
1.87539e+06	248.946
1.88622e+06	249.081
1.89711e+06	249.216
1.90806e+06	249.35
1.91907e+06	249.485
1.93015e+06	249.62
1.9413e+06	249.755
1.9525e+06	249.89
1.96378e+06	250.025
1.97511e+06	250.16
1.98651e+06	250.295
1.99798e+06	250.431
