# IRO spectrum from Tanja Kneiske et al.
#   obtained from O. E. Kalashev (http://hecr.inr.ac.ru/)
# E [eV], n_E(E) [1/m^3/eV] for z = 0-5 in steps of 0.1
  0.00069984	23082428.000 16797216.000 12499635.000 9477504.000 7315099.000 5720616.000 4538574.000 3639205.250 2947087.750 2406276.750 1978746.500 1638720.375 1365054.250 1144415.875 965805.938 819396.125 698826.000 598765.750 515212.062 445092.375 385696.281 335222.406 292228.281 255285.750 223578.172 196199.562 172489.578 151899.516 133968.547 118385.695 104709.133 92715.234 82169.867 72855.266 64608.211 57296.703 50804.715 45034.648 39907.348 35324.027 31238.977 27585.521 24304.893 21366.840 18733.875 16368.606 14244.030 12328.862 10611.467 9063.628 7671.939
  0.000887156	38866848.000 28812814.000 21772974.000 16722106.000 13049477.000 10300474.000 8238895.500 6652938.000 5420969.000 4450118.500 3676776.750 3057766.250 2556663.250 2150685.000 1820662.250 1549046.000 1324564.375 1137643.250 981067.562 849289.250 737354.312 641991.500 560572.625 490452.781 430147.188 377973.469 332709.562 293336.250 258994.953 229108.844 202841.094 179774.328 159467.766 141509.281 125590.648 111461.875 98903.305 87730.328 77792.664 68901.039 60969.227 53869.328 47488.633 41769.773 36640.914 32030.158 27885.625 24146.982 20792.244 17766.736 15044.722
  0.001124605	61962184.000 47023576.000 36236520.000 28291460.000 22392232.000 17888118.000 14459066.000 11782415.000 9677395.000 7999837.000 6650091.000 5560579.500 4671850.000 3947233.750 3354973.500 2864961.000 2458086.000 2117802.750 1831591.250 1589802.750 1383676.750 1207483.125 1056596.875 926258.938 813866.062 716380.812 631607.688 557706.625 493120.500 436810.312 387225.062 343606.312 305143.688 271074.281 240829.266 213945.328 190015.797 168699.203 149716.219 132710.734 117523.891 103914.680 91670.758 80685.641 70824.234 61950.586 53966.770 46758.277 40284.555 34441.164 29179.605
  0.001425608	92299888.000 72095360.000 56926256.000 45370692.000 36558580.000 29652784.000 24292378.000 20027172.000 16618173.000 13861002.000 11613048.000 9778399.000 8266837.500 7024150.500 6001264.000 5149150.000 4437290.000 3838521.500 3332187.000 2902337.000 2534139.250 2218032.500 1946254.750 1710558.875 1506606.500 1329114.250 1174291.375 1038939.625 920337.125 816684.125 725186.188 644513.750 573223.812 509944.656 453657.844 403529.375 358828.062 318941.188 283364.031 251442.281 222892.375 197270.906 174186.906 153448.594 134807.953 118013.594 102884.906 89209.094 76913.773 65803.250 55788.195
  0.001807174	126798120.000 102455336.000 83291248.000 68065320.000 56066816.000 46341312.000 38606708.000 32297100.000 27147472.000 22901360.000 19378832.000 16462556.000 14028489.000 12005932.000 10326039.000 8914154.000 7725336.500 6717920.000 5860034.500 5127051.500 4495267.500 3949751.500 3478293.250 3067292.000 2710018.250 2397727.250 2124218.500 1884212.000 1673178.625 1488165.625 1324321.125 1179426.875 1051020.250 936728.500 834802.125 743795.938 662447.000 589699.688 524675.812 466210.562 413819.750 366712.062 324190.156 285922.094 251467.094 220374.000 192319.703 166919.781 144050.812 123355.164 104673.586
  0.002296149	158971184.000 133361392.000 112054608.000 94249672.000 79675520.000 67346776.000 57254216.000 48755984.000 41634744.000 35615932.000 30509646.000 26204760.000 22551912.000 19475680.000 16891826.000 14695667.000 12827914.000 11230000.000 9856906.000 8673944.000 7645984.000 6751730.000 5973619.500 5290628.500 4693361.500 4168271.500 3705942.750 3298250.250 2938149.500 2621147.500 2339222.000 2088913.250 1866254.875 1667351.750 1489359.000 1329900.250 1186907.500 1058662.625 943714.188 840073.062 746962.250 663027.062 587074.375 518561.062 456737.562 400825.562 350270.625 304403.719 263028.188 225511.844 191582.859
  0.002910717	180864800.000 157762464.000 137276496.000 119111672.000 103629592.000 89818144.000 78146304.000 67926344.000 59084548.000 51378380.000 44653960.000 38858016.000 33839684.000 29545184.000 25890252.000 22740970.000 20029700.000 17682484.000 15642411.000 13866235.000 12306626.000 10936757.000 9734352.000 8669469.000 7730991.500 6899691.000 6162665.500 5508570.000 4927421.000 4413076.000 3953087.250 3542550.250 3175554.000 2846139.500 2550019.750 2283545.750 2043577.125 1827530.250 1633168.125 1457279.750 1298725.125 1155310.250 1025104.875 907290.125 800664.688 703957.062 616267.188 536488.188 464338.000 398747.719 339280.500
  0.003689776	186323296.000 169053648.000 152381488.000 136446368.000 122305824.000 108806536.000 97030824.000 86220424.000 76516624.000 67742360.000 59820296.000 52817108.000 46612088.000 41208052.000 36544932.000 32464748.000 28903022.000 25776452.000 23021600.000 20592250.000 18431414.000 16510510.000 14805909.000 13278938.000 11919911.000 10704428.000 9617182.000 8644332.000 7773444.000 6997349.500 6298230.000 5670012.000 5104784.500 4594239.000 4132561.250 3714642.500 3336181.750 2993720.500 2684127.250 2402589.000 2147652.000 1916015.125 1704784.875 1512868.500 1338494.125 1179731.000 1035225.375 903268.188 783522.438 674285.438 574913.125
  0.004677351	172899984.000 163532000.000 152804400.000 141182368.000 130385744.000 119003352.000 108762480.000 98781064.000 89435432.000 80609776.000 72313096.000 64780828.000 57947016.000 51897504.000 46618452.000 41930804.000 37782900.000 34088592.000 30784348.000 27828360.000 25159420.000 22752890.000 20589470.000 18624108.000 16853820.000 15251544.000 13802479.000 12492647.000 11309146.000 10245423.000 9278374.000 8401818.000 7606585.500 6882435.000 6222540.500 5620553.500 5071390.500 4571175.500 4116071.250 3699534.000 3320109.750 2973293.500 2655171.500 2364552.000 2099110.250 1856190.750 1633961.875 1430019.500 1244105.375 1073713.875 918008.312
  0.005929253	142292416.000 141140800.000 137231200.000 131099624.000 124882776.000 116917456.000 109452848.000 101488608.000 93611680.000 85748672.000 77979920.000 70735264.000 64018824.000 58006072.000 52740216.000 48018496.000 43800688.000 39998936.000 36551292.000 33423582.000 30555558.000 27929832.000 25536098.000 23326132.000 21308392.000 19456788.000 17760696.000 16209365.000 14792545.000 13506381.000 12324059.000 11240893.000 10248065.000 9334765.000 8494421.000 7720182.000 7007196.500 6352282.000 5751519.500 5197051.500 4688082.000 4219191.000 3785757.250 3386935.500 3020136.500 2682173.500 2370899.000 2083336.000 1819596.375 1576361.000 1352737.875
  0.007516229	101115616.000 106061032.000 108058352.000 107336344.000 105886112.000 101933104.000 97856608.000 92625648.000 86943544.000 80765968.000 74219856.000 67925472.000 61973164.000 56620148.000 51970188.000 47801324.000 44074548.000 40698996.000 37611248.000 34781036.000 32152272.000 29712154.000 27459024.000 25343974.000 23386750.000 21564798.000 19873424.000 18307336.000 16861422.000 15535211.000 14300962.000 13156370.000 12094619.000 11106150.000 10186103.000 9328019.000 8528549.000 7786643.000 7099131.500 6457885.500 5863520.500 5310439.000 4794054.000 4314473.500 3869429.750 3455729.000 3071294.250 2713018.750 2381784.750 2073753.375 1788259.500
  0.010  60132664.000 67083776.000 72126736.000 75053616.000 77146704.000 76782120.000 75883424.000 73512040.000 70293760.000 66185748.000 61312724.000 56414032.000 51667876.000 47389764.000 43740412.000 40505156.000 37640524.000 35059532.000 32698366.000 30526360.000 28495728.000 26593152.000 24821118.000 23133358.000 21554598.000 20066692.000 18669272.000 17361992.000 16145018.000 15019377.000 13959509.000 12964512.000 12029946.000 11148679.000 10318077.000 9532406.000 8790384.000 8093795.500 7440612.500 6823668.500 6245149.000 5700143.500 5184924.500 4700863.500 4246586.000 3819546.500 3418158.500 3039823.750 2686421.500 2354188.750 2042980.375
  0.012  29175852.000 34498132.000 39220296.000 42980768.000 46274056.000 47925956.000 49024464.000 48845212.000 47747808.000 45655720.000 42625312.000 39356192.000 36069104.000 33083738.000 30590404.000 28419396.000 26527314.000 24845746.000 23319472.000 21919184.000 20611302.000 19381200.000 18231702.000 17125388.000 16084064.000 15094854.000 14158842.000 13278560.000 12457710.000 11696232.000 10973777.000 10289012.000 9638978.000 9019019.000 8427937.000 7860536.500 7316894.500 6800724.000 6310722.000 5841457.500 5395762.500 4969895.500 4561332.500 4172215.750 3802122.250 3449474.250 3113285.750 2791887.500 2487798.250 2197957.250 1922745.250
  0.015  11508231.000 14126752.000 16803730.000 19330346.000 21788260.000 23571180.000 25057120.000 25807376.000 25905272.000 25245248.000 23794326.000 22046830.000 20188890.000 18471836.000 17064358.000 15862777.000 14832982.000 13933893.000 13127638.000 12391662.000 11708052.000 11064398.000 10462397.000 9878638.000 9327397.000 8801768.000 8302700.000 7833694.500 7399771.500 6999470.500 6619813.500 6258745.500 5914123.500 5583350.000 5265711.000 4956843.000 4657068.500 4370116.000 4094885.750 3827839.500 3571133.500 3322244.750 3079614.750 2845129.500 2618814.250 2399851.500 2187613.000 1981260.625 1783047.625 1590915.125 1405391.000
  0.019  3909101.500 4756239.500 5715160.500 6737279.000 7826219.000 8780300.000 9667117.000 10298090.000 10636767.000 10595122.000 10104111.000 9406039.000 8605181.000 7843510.500 7227503.500 6710938.000 6274789.500 5901231.000 5570875.000 5270939.500 4994251.000 4733390.000 4488754.000 4249668.000 4022825.000 3805789.500 3598983.000 3405243.500 3228684.750 3067895.750 2916822.500 2773826.000 2637630.750 2507172.250 2381990.500 2259332.750 2139327.250 2024394.500 1913701.250 1805400.625 1700509.125 1597619.125 1495840.500 1396202.000 1298730.000 1203012.500 1108586.000 1015076.000 923789.438 833588.562 744770.062
  0.025  1407404.750 1592374.500 1807349.875 2050313.625 2331606.000 2606442.250 2887872.500 3122038.000 3280505.500 3321453.250 3200288.500 2993771.250 2738309.750 2486890.750 2284216.500 2115748.500 1974657.750 1855542.875 1751480.000 1657560.875 1571518.375 1490411.625 1414068.875 1338965.500 1267216.750 1198232.375 1132045.875 1070018.250 1014205.875 963980.250 917370.062 873674.250 832381.938 793215.062 755973.625 719532.250 683907.500 650138.375 617842.188 586331.625 555916.875 526040.250 496306.000 467073.531 438316.812 409850.156 381405.688 352824.312 324575.781 296175.875 267683.156
  0.031  707274.000 738565.312 771022.312 802513.625 842000.875 874772.750 912891.625 942779.500 960395.500 954821.312 912798.938 851302.312 778154.500 706238.062 647408.312 597844.250 555899.438 520162.875 488821.188 460594.531 434770.500 410589.688 387925.188 365802.125 344725.375 324503.375 305083.469 286821.219 270296.781 255368.500 241521.734 228589.969 216433.438 204982.344 194178.688 183730.906 173633.594 164169.531 155241.078 146665.969 138519.125 130652.711 122948.203 115494.695 108275.648 101231.727 94273.266 87345.875 80558.508 73765.227 66959.477
  0.040  468488.219 470993.375 473459.281 473848.656 475927.906 471006.094 466543.188 456316.219 441979.125 421187.562 392146.031 360362.906 327697.750 297485.500 272325.219 250705.141 232115.391 215916.281 201520.219 188525.844 176616.969 165566.172 155347.422 145579.000 136436.766 127793.641 119626.367 111987.406 104970.320 98550.453 92535.859 86890.883 81573.461 76542.102 71777.766 67207.570 62826.457 58694.523 54790.812 51059.133 47524.922 44146.883 40893.488 37789.418 34829.965 31997.920 29274.311 26641.684 24128.830 21696.818 19344.795
  0.050  338373.188 334167.719 329224.094 323699.219 319583.625 312225.812 305228.875 294999.688 282226.062 265873.156 245316.469 223839.969 202524.000 183160.938 166925.328 152928.031 140848.547 130308.336 120941.797 112513.711 104826.367 97755.391 91268.477 85148.969 79483.859 74195.570 69263.836 64699.598 60532.441 56735.840 53198.738 49895.453 46797.172 43876.293 41116.207 38478.074 35955.855 33574.641 31320.301 29161.461 27110.543 25144.078 23246.682 21430.072 19691.656 18022.641 16415.762 14862.202 13377.588 11944.036 10563.877
  0.064  241623.984 239951.234 235536.344 229388.391 223265.016 215330.203 207693.938 198718.766 188584.094 176722.938 162691.188 148291.172 134105.422 121128.367 110074.953 100458.695 92082.055 84720.164 78158.656 72249.711 66877.508 61949.266 57439.730 53226.746 49343.426 45741.637 42405.844 39337.402 36552.676 34030.324 31706.680 29559.697 27569.424 25716.400 23988.088 22356.404 20815.271 19376.496 18028.896 16752.342 15550.524 14407.904 13313.681 12272.397 11280.821 10332.619 9421.690 8542.252 7702.337 6890.792 6108.063
  0.081  157994.984 161520.406 161750.859 159351.969 155789.766 149992.969 143842.062 136598.984 128602.906 119827.523 110134.648 100550.828 91320.797 82901.445 75607.578 69159.898 63453.355 58366.266 53778.914 49619.137 45810.715 42305.527 39085.434 36084.086 33311.168 30740.002 28356.004 26154.906 24142.467 22305.635 20610.314 19044.506 17595.727 16252.618 15006.473 13842.107 12754.104 11745.609 10809.623 9934.487 9120.255 8357.878 7640.378 6968.321 6338.544 5746.610 5188.000 4658.650 4161.028 3688.686 3240.701
  0.102  92640.219 97674.977 100968.219 102162.852 102281.180 100119.680 97203.898 92929.289 87777.617 81862.195 75318.438 68942.008 62920.543 57492.465 52787.430 48603.477 44887.133 41532.953 38480.996 35694.730 33119.566 30731.369 28523.602 26453.025 24529.197 22733.746 21057.652 19498.439 18052.910 16716.295 15468.167 14301.891 13212.507 12192.642 11237.909 10341.419 9499.812 8714.039 7980.408 7292.080 6649.498 6047.592 5482.275 4953.721 4459.932 3998.163 3565.947 3160.642 2783.126 2429.727 2099.795
  0.130  51922.777 55066.371 58019.012 59831.809 61471.227 61428.844 60876.836 59239.434 56671.559 53282.020 49194.809 45088.227 41182.379 37701.098 34740.320 32133.590 29831.646 27773.486 25900.064 24188.461 22600.125 21123.756 19755.688 18462.736 17257.045 16123.237 15058.995 14063.379 13134.135 12269.805 11452.759 10680.799 9951.276 9259.246 8603.494 7979.295 7385.923 6824.728 6294.184 5789.465 5312.359 4859.628 4428.950 4021.369 3636.155 3271.792 2927.198 2600.862 2294.149 2004.741 1732.738
  0.165  32584.680 33055.836 33396.340 34187.371 34947.715 35164.121 35301.406 34710.777 33544.207 31756.689 29370.287 26847.268 24431.977 22243.303 20457.979 18885.506 17555.133 16363.288 15302.774 14336.794 13447.775 12620.466 11857.604 11131.330 10452.075 9815.156 9218.879 8660.816 8144.625 7666.938 7215.729 6789.482 6383.262 5995.129 5624.918 5268.008 4924.542 4596.708 4283.504 3981.537 3692.647 3414.449 3145.514 2887.279 2639.588 2401.671 2172.933 1952.553 1742.242 1540.304 1347.207
  0.209  25824.176 23806.660 22729.723 21771.596 21388.203 20807.619 20319.109 19758.012 19007.787 17916.598 16448.178 14958.250 13417.992 12050.269 10938.607 10038.352 9235.188 8563.780 7986.612 7454.921 6976.683 6536.832 6130.150 5747.052 5390.670 5053.100 4741.389 4454.923 4191.308 3953.707 3730.171 3522.728 3323.615 3136.312 2958.063 2786.406 2620.721 2463.307 2313.029 2167.107 2027.057 1892.537 1760.751 1632.966 1509.331 1388.939 1271.601 1156.596 1045.214 936.497 830.537
  0.265  23447.240 21186.641 18870.402 17255.768 15793.220 14687.750 13690.478 12752.548 11811.729 10883.307 9863.462 8833.504 7815.175 6934.553 6182.271 5559.389 5041.541 4578.868 4186.714 3842.977 3535.809 3276.887 3032.242 2807.084 2606.213 2421.390 2249.499 2094.873 1954.579 1828.473 1715.144 1607.627 1509.897 1416.322 1330.911 1250.218 1172.258 1099.195 1031.684 965.868 904.534 845.790 787.785 733.133 679.886 628.595 578.334 529.311 481.776 435.000 389.252
  0.335  21758.072 19551.314 17574.146 15536.027 13923.845 12458.931 11174.576 9950.511 9001.776 7969.432 7143.522 6252.688 5516.693 4847.142 4312.366 3785.502 3369.204 3040.398 2719.806 2453.609 2229.276 2014.597 1821.648 1650.527 1495.671 1358.509 1227.855 1116.451 1012.521 929.049 851.523 785.346 721.841 666.968 616.430 569.550 526.409 487.900 451.459 417.378 385.998 356.362 328.628 302.272 277.655 254.209 231.970 210.639 190.452 171.035 152.375
  0.425  18374.984 17026.916 15586.780 14104.911 12590.682 11361.752 9997.830 8735.726 7737.450 6889.450 5976.555 5235.675 4604.645 4037.838 3544.361 3152.586 2777.018 2477.169 2223.781 1965.464 1771.241 1592.207 1443.876 1286.467 1166.868 1046.705 946.133 847.230 773.733 689.782 623.096 565.542 503.474 451.962 405.713 360.495 322.878 285.878 252.888 227.933 205.242 183.412 163.373 146.065 131.193 116.868 103.776  92.177  81.527  71.553  62.385
  0.539  14524.924 13648.417 12759.453 11860.436 10909.960 9918.773 8964.051 8010.647 7151.747 6211.512 5478.652 4786.481 4219.740 3688.181 3278.987 2856.308 2548.859 2265.684 2024.970 1828.330 1628.952 1458.036 1313.074 1192.248 1078.765 963.784 880.329 798.120 727.219 650.452 593.244 541.499 486.113 443.112 403.715 360.771 327.987 299.046 266.322 241.337 213.961 189.039 170.612 149.615 130.803 116.372 100.734  84.469  71.970  59.316  47.545
  0.684  9777.402 9442.300 8979.602 8400.495 7838.247 7148.363 6580.991 5986.367 5345.627 4777.698 4229.812 3750.698 3291.118 2873.528 2535.362 2225.595 1981.057 1758.213 1573.217 1407.826 1262.281 1138.858 1029.016 927.402 837.838 761.878 686.650 624.751 564.903 513.386 467.923 426.086 387.273 352.235 321.825 292.094 266.542 242.619 220.552 200.561 181.972 165.048 149.102 134.649 120.468 108.312  96.072  85.269  74.947  65.371  56.425
  0.867  5969.251 5791.789 5545.426 5297.628 4968.451 4542.558 4196.644 3791.613 3434.509 3050.830 2703.058 2382.496 2094.040 1826.826 1601.238 1408.246 1250.428 1112.094 991.305 878.295 793.833 714.009 639.740 577.060 519.497 467.490 424.024 383.104 346.118 313.729 285.010 258.334 234.386 212.276 193.256 175.250 158.614 143.859 130.508 118.145 107.052  96.458  86.990  78.104  70.035  62.511  55.437  48.967  42.999  37.465  32.273
  1.099  3411.466 3375.146 3342.770 3182.778 2903.627 2810.607 2593.842 2354.925 2149.188 1931.706 1702.228 1497.390 1311.067 1143.251 1003.684 882.926 781.239 695.201 614.513 548.968 493.052 439.037 394.975 354.642 317.844 285.136 256.642 232.379 208.465 188.622 170.480 153.564 139.322 125.903 114.189 103.234  93.855  84.889  76.512  69.655  62.625  56.784  51.100  45.987  41.115  36.680  32.476  28.604  25.049  21.712  18.669
  1.394  1791.030 1791.571 1803.990 1731.866 1660.643 1580.357 1462.776 1348.693 1222.006 1105.966 977.515 857.403 752.507 664.571 586.062 517.714 459.168 407.570 359.178 317.530 284.455 256.040 227.067 203.705 183.664 164.552 147.823 131.729 118.716 106.639  95.242  85.753  78.045  70.426  63.115  56.811  51.171  45.534  41.125  37.295  33.686  30.128  27.251  24.031  21.567  19.233  16.982  14.845  13.085  11.229   9.739
  1.767  869.700 900.972 942.492 919.438 911.934 877.363 840.690 779.486 722.003 654.585 572.261 512.069 453.328 395.271 349.036 312.729 273.850 246.973 219.876 196.309 174.390 154.832 139.702 125.821 113.689 101.744  91.427  81.612  73.110  66.032  59.544  53.457  47.777  42.479  38.549  34.560  31.080  27.659  24.854  22.315  19.952  17.852  15.997  14.177  12.613  11.117   9.776   8.517   7.407   6.368   5.414
  2.241  407.444 429.876 448.863 452.335 459.822 455.363 442.114 423.814 403.907 368.751 317.470 298.704 259.896 231.466 199.072 179.424 161.326 144.612 129.754 118.164 103.706  91.859  85.365  76.062  69.099  62.307  56.146  50.720  46.532  41.687  37.884  34.137  31.028  27.531  25.314  22.807  20.402  18.418  16.376  14.805  13.173  11.841  10.421   9.343   8.229   7.198   6.331   5.494   4.756   4.073   3.452
  2.841  190.947 198.509 210.147 218.222 212.291 215.392 207.541 198.426 189.180 186.539 169.843 155.032 132.550 118.577 105.711  90.419  85.032  78.079  69.091  63.405  57.024  49.228  45.348  40.357  38.246  34.390  31.249  28.232  25.743  23.461  21.526  19.404  17.815  16.259  14.795  12.897  12.269  11.246   9.757   9.120   8.190   7.443   6.611   6.042   5.442   4.775   4.258   3.780   3.315   2.876   2.457
  3.603  107.234 118.170 120.458 122.656 124.832 121.973 117.962 113.051 106.773  99.565  91.852  83.047  73.291  64.911  57.988  51.995  46.945  42.191  38.000  34.312  31.094  28.172  25.525  23.221  20.857  19.200  17.362  15.829  14.545  13.231  12.045  11.022  10.089   9.182   8.367   7.615   6.942   6.312   5.715   5.201   4.725   4.263   3.845   3.453   3.082   2.751   2.438   2.150   1.883   1.634   1.403
  4.568   62.292  67.791  74.436  77.561  78.569  80.679  80.838  77.374  73.489  69.142  62.956  57.685  50.838  45.081  40.567  36.510  33.069  29.722  27.113  24.812  22.376  20.368  18.440  16.901  15.369  14.013  12.667  11.619  10.680   9.704   9.010   8.224   7.546   6.853   6.313   5.737   5.268   4.781   4.389   4.018   3.624   3.275   2.982   2.697   2.422   2.168   1.916   1.695   1.500   1.305   1.129
  5.792   28.827  35.075  42.427  46.184  51.393  48.853  51.634  51.097  48.498  45.926  43.782  39.535  34.390  30.568  28.059  25.213  22.657  21.014  18.755  17.274  16.008  14.522  13.058  12.084  11.135  10.239   9.245   8.526   7.866   7.218   6.658   6.087   5.594   5.133   4.714   4.330   3.930   3.624   3.322   3.013   2.775   2.517   2.300   2.088   1.875   1.684   1.509   1.340   1.180   1.035   0.897
  7.344    7.891  12.658  15.000  23.006  24.245  25.419  29.128  29.559  29.057  26.509  25.635  24.240  21.193  19.087  16.642  14.871  13.812  12.669  11.376  10.326   9.663   8.791   8.213   7.362   6.947   6.394   5.930   5.552   5.104   4.711   4.401   4.104   3.703   3.525   3.163   2.951   2.701   2.507   2.286   2.125   1.952   1.779   1.623   1.466   1.323   1.181   1.053   0.933   0.829   0.729   0.631
  9.312    1.850   2.564   4.541   5.077   7.387   9.480  10.539  12.206  13.433  13.301  12.951  12.258  11.349   9.013   8.624   7.584   6.227   6.099   5.961   5.244   4.832   4.495   4.030   3.825   3.571   3.290   2.936   2.778   2.558   2.454   2.218   2.125   1.974   1.858   1.760   1.667   1.530   1.472   1.379   1.295   1.213   1.100   1.035   0.948   0.864   0.786   0.713   0.641   0.571   0.506   0.446
 11.806    0.239   0.389   0.525   0.540   0.632   1.015   1.396   1.757   2.160   2.909   3.419   3.184   2.737   2.410   2.132   1.938   1.712   1.539   1.309   1.118   1.122   1.117   1.089   1.023   0.931   0.812   0.730   0.688   0.671   0.624   0.556   0.496   0.498   0.491   0.450   0.413   0.387   0.378   0.350   0.328   0.317   0.301   0.280   0.269   0.254   0.244   0.233   0.220   0.210   0.201   0.192
# 14.970    0.000   0.000   0.000   0.000   0.000   0.000   0.000   0.000   0.000   0.000   0.000   0.000   0.000   0.000   0.000   0.000   0.000   0.000   0.000   0.000   0.000   0.000   0.000   0.000   0.000   0.000   0.000   0.000   0.000   0.000   0.000   0.000   0.000   0.000   0.000   0.000   0.000   0.000   0.000   0.000   0.000   0.000   0.000   0.000   0.000   0.000   0.000   0.000   0.000   0.000   0.000
# 18.981    0.000   0.000   0.000   0.000   0.000   0.000   0.000   0.000   0.000   0.000   0.000   0.000   0.000   0.000   0.000   0.000   0.000   0.000   0.000   0.000   0.000   0.000   0.000   0.000   0.000   0.000   0.000   0.000   0.000   0.000   0.000   0.000   0.000   0.000   0.000   0.000   0.000   0.000   0.000   0.000   0.000   0.000   0.000   0.000   0.000   0.000   0.000   0.000   0.000   0.000   0.000
# 24.066    0.000   0.000   0.000   0.000   0.000   0.000   0.000   0.000   0.000   0.000   0.000   0.000   0.000   0.000   0.000   0.000   0.000   0.000   0.000   0.000   0.000   0.000   0.000   0.000   0.000   0.000   0.000   0.000   0.000   0.000   0.000   0.000   0.000   0.000   0.000   0.000   0.000   0.000   0.000   0.000   0.000   0.000   0.000   0.000   0.000   0.000   0.000   0.000   0.000   0.000   0.000
# 30.515    0.000   0.000   0.000   0.000   0.000   0.000   0.000   0.000   0.000   0.000   0.000   0.000   0.000   0.000   0.000   0.000   0.000   0.000   0.000   0.000   0.000   0.000   0.000   0.000   0.000   0.000   0.000   0.000   0.000   0.000   0.000   0.000   0.000   0.000   0.000   0.000   0.000   0.000   0.000   0.000   0.000   0.000   0.000   0.000   0.000   0.000   0.000   0.000   0.000   0.000   0.000
# 38.691    0.000   0.000   0.000   0.000   0.000   0.000   0.000   0.000   0.000   0.000   0.000   0.000   0.000   0.000   0.000   0.000   0.000   0.000   0.000   0.000   0.000   0.000   0.000   0.000   0.000   0.000   0.000   0.000   0.000   0.000   0.000   0.000   0.000   0.000   0.000   0.000   0.000   0.000   0.000   0.000   0.000   0.000   0.000   0.000   0.000   0.000   0.000   0.000   0.000   0.000   0.000
# 49.058    0.000   0.000   0.000   0.000   0.000   0.000   0.000   0.000   0.000   0.000   0.000   0.000   0.000   0.000   0.000   0.000   0.000   0.000   0.000   0.000   0.000   0.000   0.000   0.000   0.000   0.000   0.000   0.000   0.000   0.000   0.000   0.000   0.000   0.000   0.000   0.000   0.000   0.000   0.000   0.000   0.000   0.000   0.000   0.000   0.000   0.000   0.000   0.000   0.000   0.000   0.000
# 62.202    0.000   0.000   0.000   0.000   0.000   0.000   0.000   0.000   0.000   0.000   0.000   0.000   0.000   0.000   0.000   0.000   0.000   0.000   0.000   0.000   0.000   0.000   0.000   0.000   0.000   0.000   0.000   0.000   0.000   0.000   0.000   0.000   0.000   0.000   0.000   0.000   0.000   0.000   0.000   0.000   0.000   0.000   0.000   0.000   0.000   0.000   0.000   0.000   0.000   0.000   0.000
# 78.868    0.000   0.000   0.000   0.000   0.000   0.000   0.000   0.000   0.000   0.000   0.000   0.000   0.000   0.000   0.000   0.000   0.000   0.000   0.000   0.000   0.000   0.000   0.000   0.000   0.000   0.000   0.000   0.000   0.000   0.000   0.000   0.000   0.000   0.000   0.000   0.000   0.000   0.000   0.000   0.000   0.000   0.000   0.000   0.000   0.000   0.000   0.000   0.000   0.000   0.000   0.000
#100.000    0.000   0.000   0.000   0.000   0.000   0.000   0.000   0.000   0.000   0.000   0.000   0.000   0.000   0.000   0.000   0.000   0.000   0.000   0.000   0.000   0.000   0.000   0.000   0.000   0.000   0.000   0.000   0.000   0.000   0.000   0.000   0.000   0.000   0.000   0.000   0.000   0.000   0.000   0.000   0.000   0.000   0.000   0.000   0.000   0.000   0.000   0.000   0.000   0.000   0.000   0.000
